# Simple Text Format
# Sampling Rate (Hz):= 360.00
# Resolution:= 12
# Labels:= ECG
1035.0
1033.0
1032.0
1031.0
1031.0
1035.0
1035.0
1035.0
1035.0
1032.0
1032.0
1035.0
1041.0
1042.0
1042.0
1038.0
1038.0
1042.0
1046.0
1047.0
1046.0
1044.0
1043.0
1042.0
1046.0
1045.0
1044.0
1040.0
1038.0
1039.0
1041.0
1042.0
1038.0
1039.0
1040.0
1041.0
1047.0
1046.0
1044.0
1041.0
1041.0
1039.0
1039.0
1038.0
1035.0
1033.0
1031.0
1033.0
1037.0
1034.0
1033.0
1032.0
1031.0
1033.0
1035.0
1036.0
1034.0
1029.0
1032.0
1031.0
1034.0
1034.0
1034.0
1032.0
1029.0
1031.0
1033.0
1035.0
1036.0
1034.0
1032.0
1035.0
1037.0
1038.0
1038.0
1037.0
1040.0
1044.0
1053.0
1058.0
1066.0
1078.0
1088.0
1099.0
1119.0
1142.0
1171.0
1200.0
1232.0
1268.0
1304.0
1337.0
1376.0
1417.0
1456.0
1475.0
1464.0
1410.0
1318.0
1214.0
1133.0
1083.0
1054.0
1039.0
1035.0
1035.0
1034.0
1033.0
1035.0
1033.0
1026.0
1017.0
1012.0
1012.0
1014.0
1014.0
1013.0
1008.0
1010.0
1010.0
1009.0
1011.0
1008.0
1006.0
1004.0
1006.0
1008.0
1007.0
1005.0
1001.0
998.0
1003.0
1005.0
1004.0
1002.0
998.0
998.0
996.0
999.0
1000.0
999.0
996.0
996.0
999.0
1000.0
999.0
998.0
996.0
995.0
997.0
999.0
1001.0
997.0
997.0
993.0
996.0
998.0
1001.0
1000.0
997.0
996.0
998.0
1002.0
1002.0
1000.0
1000.0
997.0
1000.0
1002.0
1003.0
1004.0
1002.0
1001.0
1003.0
1006.0
1007.0
1008.0
1004.0
1005.0
1013.0
1014.0
1016.0
1016.0
1016.0
1020.0
1023.0
1031.0
1032.0
1033.0
1033.0
1036.0
1040.0
1044.0
1050.0
1052.0
1052.0
1057.0
1060.0
1064.0
1068.0
1069.0
1066.0
1069.0
1070.0
1071.0
1073.0
1068.0
1064.0
1066.0
1066.0
1066.0
1065.0
1062.0
1055.0
1052.0
1055.0
1054.0
1052.0
1052.0
1048.0
1044.0
1048.0
1049.0
1047.0
1044.0
1041.0
1042.0
1042.0
1047.0
1043.0
1042.0
1039.0
1039.0
1042.0
1042.0
1042.0
1041.0
1040.0
1039.0
1040.0
1044.0
1042.0
1041.0
1037.0
1036.0
1040.0
1041.0
1042.0
1040.0
1036.0
1035.0
1035.0
1041.0
1039.0
1039.0
1034.0
1033.0
1037.0
1041.0
1042.0
1041.0
1039.0
1038.0
1041.0
1041.0
1045.0
1042.0
1039.0
1039.0
1043.0
1046.0
1046.0
1044.0
1038.0
1039.0
1042.0
1045.0
1046.0
1047.0
1043.0
1040.0
1041.0
1044.0
1043.0
1042.0
1038.0
1041.0
1043.0
1044.0
1041.0
1042.0
1036.0
1039.0
1041.0
1042.0
1043.0
1040.0
1038.0
1038.0
1039.0
1040.0
1039.0
1039.0
1039.0
1035.0
1039.0
1039.0
1041.0
1039.0
1036.0
1035.0
1036.0
1039.0
1039.0
1039.0
1040.0
1038.0
1038.0
1043.0
1040.0
1039.0
1039.0
1038.0
1039.0
1039.0
1040.0
1039.0
1036.0
1036.0
1039.0
1041.0
1041.0
1038.0
1035.0
1038.0
1040.0
1044.0
1042.0
1039.0
1037.0
1037.0
1042.0
1043.0
1043.0
1041.0
1038.0
1040.0
1041.0
1044.0
1044.0
1042.0
1038.0
1037.0
1040.0
1043.0
1044.0
1041.0
1041.0
1038.0
1042.0
1044.0
1044.0
1042.0
1042.0
1042.0
1043.0
1045.0
1048.0
1045.0
1045.0
1047.0
1050.0
1053.0
1054.0
1053.0
1050.0
1052.0
1054.0
1058.0
1061.0
1057.0
1055.0
1054.0
1058.0
1055.0
1054.0
1054.0
1052.0
1052.0
1054.0
1057.0
1056.0
1053.0
1053.0
1052.0
1058.0
1061.0
1060.0
1059.0
1054.0
1053.0
1051.0
1051.0
1051.0
1050.0
1047.0
1047.0
1049.0
1051.0
1051.0
1051.0
1049.0
1047.0
1048.0
1051.0
1051.0
1050.0
1045.0
1045.0
1049.0
1050.0
1052.0
1050.0
1047.0
1047.0
1049.0
1054.0
1051.0
1048.0
1050.0
1051.0
1051.0
1052.0
1053.0
1055.0
1055.0
1057.0
1064.0
1073.0
1079.0
1087.0
1098.0
1107.0
1123.0
1145.0
1170.0
1199.0
1233.0
1269.0
1306.0
1342.0
1376.0
1416.0
1457.0
1491.0
1514.0
1513.0
1482.0
1414.0
1322.0
1229.0
1157.0
1107.0
1076.0
1058.0
1052.0
1055.0
1057.0
1056.0
1055.0
1051.0
1047.0
1043.0
1042.0
1040.0
1038.0
1033.0
1031.0
1029.0
1032.0
1034.0
1032.0
1030.0
1028.0
1027.0
1028.0
1032.0
1031.0
1030.0
1025.0
1024.0
1025.0
1031.0
1026.0
1025.0
1023.0
1024.0
1025.0
1029.0
1027.0
1025.0
1020.0
1023.0
1024.0
1027.0
1027.0
1025.0
1022.0
1021.0
1022.0
1024.0
1027.0
1025.0
1023.0
1022.0
1023.0
1024.0
1026.0
1025.0
1023.0
1022.0
1024.0
1027.0
1029.0
1026.0
1025.0
1027.0
1028.0
1031.0
1031.0
1031.0
1027.0
1025.0
1027.0
1032.0
1031.0
1031.0
1026.0
1027.0
1028.0
1034.0
1035.0
1033.0
1030.0
1032.0
1034.0
1039.0
1039.0
1038.0
1038.0
1039.0
1045.0
1050.0
1052.0
1052.0
1051.0
1054.0
1058.0
1063.0
1066.0
1068.0
1067.0
1072.0
1077.0
1081.0
1084.0
1085.0
1087.0
1091.0
1094.0
1100.0
1100.0
1101.0
1099.0
1101.0
1102.0
1105.0
1102.0
1103.0
1100.0
1099.0
1099.0
1096.0
1092.0
1089.0
1082.0
1083.0
1083.0
1084.0
1083.0
1079.0
1075.0
1072.0
1075.0
1075.0
1077.0
1074.0
1071.0
1071.0
1070.0
1072.0
1073.0
1072.0
1067.0
1067.0
1071.0
1071.0
1069.0
1068.0
1065.0
1064.0
1067.0
1070.0
1069.0
1066.0
1063.0
1064.0
1065.0
1068.0
1068.0
1066.0
1066.0
1063.0
1068.0
1065.0
1065.0
1066.0
1063.0
1065.0
1065.0
1066.0
1066.0
1061.0
1060.0
1061.0
1063.0
1066.0
1067.0
1066.0
1062.0
1062.0
1064.0
1066.0
1065.0
1066.0
1063.0
1067.0
1069.0
1070.0
1067.0
1065.0
1066.0
1065.0
1068.0
1070.0
1070.0
1071.0
1066.0
1065.0
1069.0
1070.0
1070.0
1068.0
1064.0
1063.0
1065.0
1067.0
1066.0
1063.0
1064.0
1064.0
1067.0
1068.0
1064.0
1062.0
1058.0
1060.0
1065.0
1067.0
1067.0
1064.0
1062.0
1063.0
1060.0
1065.0
1064.0
1062.0
1062.0
1062.0
1063.0
1064.0
1063.0
1060.0
1060.0
1056.0
1060.0
1061.0
1061.0
1059.0
1056.0
1057.0
1055.0
1059.0
1060.0
1055.0
1055.0
1055.0
1057.0
1061.0
1062.0
1061.0
1059.0
1057.0
1058.0
1060.0
1058.0
1056.0
1056.0
1055.0
1058.0
1060.0
1058.0
1058.0
1057.0
1057.0
1060.0
1059.0
1059.0
1057.0
1055.0
1055.0
1059.0
1063.0
1060.0
1056.0
1054.0
1054.0
1059.0
1060.0
1059.0
1056.0
1053.0
1054.0
1055.0
1056.0
1056.0
1056.0
1056.0
1056.0
1057.0
1061.0
1062.0
1057.0
1056.0
1055.0
1058.0
1062.0
1063.0
1064.0
1060.0
1059.0
1063.0
1064.0
1063.0
1064.0
1063.0
1065.0
1069.0
1071.0
1068.0
1066.0
1063.0
1066.0
1065.0
1068.0
1069.0
1065.0
1060.0
1059.0
1060.0
1065.0
1066.0
1066.0
1067.0
1069.0
1068.0
1070.0
1067.0
1066.0
1063.0
1062.0
1061.0
1061.0
1060.0
1056.0
1055.0
1054.0
1057.0
1057.0
1057.0
1058.0
1056.0
1058.0
1057.0
1060.0
1059.0
1056.0
1056.0
1056.0
1056.0
1060.0
1057.0
1054.0
1054.0
1055.0
1057.0
1059.0
1059.0
1057.0
1052.0
1052.0
1058.0
1060.0
1061.0
1059.0
1057.0
1060.0
1064.0
1069.0
1072.0
1073.0
1076.0
1087.0
1098.0
1111.0
1116.0
1126.0
1137.0
1161.0
1192.0
1221.0
1251.0
1278.0
1306.0
1336.0
1369.0
1406.0
1445.0
1472.0
1485.0
1480.0
1449.0
1392.0
1307.0
1220.0
1152.0
1107.0
1081.0
1070.0
1064.0
1060.0
1060.0
1057.0
1055.0
1056.0
1055.0
1051.0
1046.0
1040.0
1036.0
1041.0
1039.0
1037.0
1032.0
1032.0
1034.0
1037.0
1034.0
1032.0
1030.0
1030.0
1033.0
1036.0
1036.0
1032.0
1030.0
1029.0
1031.0
1036.0
1032.0
1032.0
1025.0
1027.0
1029.0
1031.0
1028.0
1026.0
1024.0
1026.0
1028.0
1030.0
1027.0
1024.0
1021.0
1021.0
1024.0
1027.0
1028.0
1025.0
1023.0
1020.0
1023.0
1026.0
1026.0
1023.0
1022.0
1021.0
1021.0
1026.0
1024.0
1022.0
1020.0
1020.0
1023.0
1025.0
1025.0
1024.0
1020.0
1022.0
1025.0
1028.0
1027.0
1026.0
1024.0
1025.0
1029.0
1031.0
1030.0
1030.0
1029.0
1029.0
1033.0
1036.0
1039.0
1037.0
1038.0
1038.0
1042.0
1046.0
1048.0
1051.0
1051.0
1053.0
1057.0
1064.0
1067.0
1067.0
1068.0
1070.0
1074.0
1081.0
1082.0
1083.0
1084.0
1087.0
1090.0
1091.0
1091.0
1089.0
1085.0
1085.0
1086.0
1085.0
1082.0
1081.0
1075.0
1074.0
1076.0
1075.0
1073.0
1070.0
1066.0
1064.0
1067.0
1068.0
1070.0
1063.0
1062.0
1060.0
1062.0
1066.0
1067.0
1063.0
1059.0
1058.0
1060.0
1064.0
1062.0
1059.0
1055.0
1056.0
1057.0
1058.0
1060.0
1056.0
1055.0
1053.0
1057.0
1057.0
1055.0
1053.0
1053.0
1054.0
1054.0
1057.0
1056.0
1052.0
1049.0
1050.0
1053.0
1055.0
1054.0
1050.0
1052.0
1052.0
1051.0
1053.0
1051.0
1051.0
1048.0
1049.0
1054.0
1055.0
1052.0
1050.0
1051.0
1051.0
1054.0
1058.0
1056.0
1053.0
1051.0
1052.0
1052.0
1056.0
1055.0
1052.0
1051.0
1053.0
1054.0
1056.0
1055.0
1052.0
1047.0
1049.0
1051.0
1054.0
1052.0
1051.0
1049.0
1046.0
1049.0
1052.0
1050.0
1047.0
1045.0
1044.0
1048.0
1049.0
1044.0
1047.0
1042.0
1044.0
1045.0
1049.0
1047.0
1044.0
1044.0
1040.0
1046.0
1048.0
1044.0
1042.0
1040.0
1043.0
1042.0
1045.0
1043.0
1044.0
1039.0
1040.0
1043.0
1045.0
1043.0
1042.0
1039.0
1039.0
1039.0
1043.0
1044.0
1039.0
1039.0
1040.0
1042.0
1043.0
1041.0
1041.0
1039.0
1040.0
1045.0
1045.0
1044.0
1042.0
1039.0
1040.0
1042.0
1045.0
1043.0
1043.0
1040.0
1038.0
1044.0
1042.0
1044.0
1039.0
1039.0
1042.0
1043.0
1045.0
1046.0
1043.0
1042.0
1042.0
1044.0
1047.0
1045.0
1043.0
1041.0
1043.0
1045.0
1045.0
1044.0
1044.0
1040.0
1041.0
1046.0
1045.0
1047.0
1043.0
1042.0
1041.0
1044.0
1046.0
1047.0
1044.0
1041.0
1044.0
1045.0
1048.0
1049.0
1044.0
1046.0
1047.0
1051.0
1054.0
1054.0
1052.0
1050.0
1051.0
1053.0
1057.0
1058.0
1056.0
1055.0
1055.0
1056.0
1058.0
1054.0
1051.0
1048.0
1048.0
1051.0
1054.0
1054.0
1052.0
1051.0
1050.0
1052.0
1055.0
1057.0
1056.0
1053.0
1052.0
1056.0
1054.0
1052.0
1048.0
1043.0
1045.0
1048.0
1051.0
1051.0
1049.0
1046.0
1043.0
1046.0
1050.0
1049.0
1049.0
1043.0
1046.0
1048.0
1048.0
1047.0
1044.0
1042.0
1045.0
1046.0
1050.0
1049.0
1046.0
1044.0
1043.0
1047.0
1049.0
1049.0
1049.0
1045.0
1046.0
1052.0
1057.0
1057.0
1059.0
1063.0
1071.0
1081.0
1095.0
1104.0
1113.0
1124.0
1148.0
1177.0
1216.0
1247.0
1278.0
1307.0
1342.0
1382.0
1427.0
1470.0
1494.0
1494.0
1461.0
1390.0
1299.0
1201.0
1128.0
1081.0
1055.0
1048.0
1048.0
1052.0
1049.0
1044.0
1041.0
1041.0
1042.0
1038.0
1029.0
1029.0
1026.0
1027.0
1028.0
1028.0
1023.0
1020.0
1022.0
1026.0
1026.0
1022.0
1021.0
1017.0
1020.0
1020.0
1024.0
1023.0
1019.0
1017.0
1017.0
1018.0
1023.0
1016.0
1018.0
1014.0
1013.0
1016.0
1020.0
1018.0
1016.0
1013.0
1015.0
1016.0
1016.0
1019.0
1015.0
1011.0
1012.0
1016.0
1019.0
1017.0
1015.0
1013.0
1016.0
1017.0
1020.0
1019.0
1017.0
1013.0
1015.0
1018.0
1021.0
1021.0
1018.0
1015.0
1018.0
1020.0
1023.0
1024.0
1019.0
1017.0
1018.0
1024.0
1026.0
1023.0
1025.0
1024.0
1027.0
1028.0
1031.0
1032.0
1032.0
1030.0
1033.0
1039.0
1042.0
1044.0
1042.0
1043.0
1048.0
1054.0
1058.0
1058.0
1059.0
1062.0
1068.0
1073.0
1078.0
1075.0
1079.0
1081.0
1085.0
1087.0
1093.0
1092.0
1091.0
1085.0
1087.0
1088.0
1092.0
1087.0
1084.0
1080.0
1079.0
1078.0
1078.0
1074.0
1072.0
1065.0
1067.0
1069.0
1066.0
1065.0
1062.0
1059.0
1060.0
1062.0
1061.0
1061.0
1058.0
1054.0
1055.0
1057.0
1057.0
1057.0
1055.0
1052.0
1053.0
1056.0
1057.0
1054.0
1053.0
1050.0
1051.0
1055.0
1055.0
1055.0
1051.0
1046.0
1049.0
1050.0
1052.0
1055.0
1051.0
1050.0
1049.0
1049.0
1053.0
1050.0
1047.0
1045.0
1048.0
1051.0
1053.0
1051.0
1048.0
1045.0
1047.0
1047.0
1053.0
1051.0
1048.0
1046.0
1050.0
1051.0
1052.0
1053.0
1053.0
1049.0
1049.0
1052.0
1055.0
1057.0
1054.0
1051.0
1052.0
1054.0
1056.0
1055.0
1052.0
1050.0
1050.0
1056.0
1054.0
1056.0
1052.0
1050.0
1052.0
1051.0
1053.0
1051.0
1051.0
1045.0
1047.0
1051.0
1052.0
1049.0
1050.0
1046.0
1047.0
1049.0
1052.0
1051.0
1047.0
1044.0
1048.0
1050.0
1051.0
1049.0
1048.0
1046.0
1046.0
1047.0
1051.0
1050.0
1047.0
1045.0
1044.0
1047.0
1050.0
1047.0
1045.0
1045.0
1044.0
1046.0
1049.0
1047.0
1045.0
1043.0
1042.0
1044.0
1046.0
1048.0
1046.0
1044.0
1043.0
1047.0
1047.0
1045.0
1043.0
1044.0
1043.0
1044.0
1049.0
1048.0
1045.0
1041.0
1044.0
1045.0
1045.0
1047.0
1044.0
1044.0
1043.0
1044.0
1049.0
1044.0
1045.0
1044.0
1043.0
1047.0
1049.0
1049.0
1046.0
1044.0
1047.0
1051.0
1058.0
1056.0
1054.0
1052.0
1056.0
1057.0
1058.0
1061.0
1061.0
1055.0
1055.0
1058.0
1064.0
1058.0
1056.0
1050.0
1053.0
1055.0
1056.0
1054.0
1051.0
1051.0
1050.0
1055.0
1055.0
1058.0
1058.0
1057.0
1057.0
1055.0
1060.0
1056.0
1049.0
1044.0
1043.0
1045.0
1047.0
1048.0
1048.0
1043.0
1045.0
1046.0
1050.0
1047.0
1045.0
1042.0
1044.0
1046.0
1049.0
1047.0
1047.0
1041.0
1043.0
1046.0
1046.0
1048.0
1044.0
1043.0
1043.0
1045.0
1047.0
1047.0
1043.0
1043.0
1045.0
1051.0
1054.0
1055.0
1055.0
1056.0
1064.0
1074.0
1087.0
1099.0
1107.0
1114.0
1134.0
1162.0
1196.0
1225.0
1254.0
1282.0
1314.0
1350.0
1390.0
1433.0
1453.0
1451.0
1419.0
1355.0
1269.0
1182.0
1116.0
1073.0
1048.0
1041.0
1042.0
1044.0
1045.0
1042.0
1042.0
1043.0
1041.0
1037.0
1031.0
1026.0
1026.0
1028.0
1032.0
1028.0
1024.0
1022.0
1025.0
1024.0
1027.0
1028.0
1023.0
1023.0
1019.0
1023.0
1023.0
1024.0
1022.0
1019.0
1018.0
1020.0
1021.0
1023.0
1018.0
1016.0
1017.0
1017.0
1018.0
1019.0
1018.0
1015.0
1015.0
1018.0
1020.0
1019.0
1015.0
1016.0
1015.0
1018.0
1021.0
1018.0
1015.0
1014.0
1012.0
1015.0
1019.0
1017.0
1016.0
1016.0
1015.0
1017.0
1022.0
1019.0
1017.0
1015.0
1020.0
1019.0
1023.0
1019.0
1017.0
1019.0
1022.0
1024.0
1028.0
1027.0
1024.0
1024.0
1025.0
1028.0
1034.0
1032.0
1032.0
1032.0
1033.0
1038.0
1045.0
1048.0
1049.0
1047.0
1049.0
1054.0
1058.0
1060.0
1063.0
1064.0
1067.0
1074.0
1077.0
1080.0
1080.0
1080.0
1083.0
1085.0
1091.0
1086.0
1085.0
1082.0
1082.0
1084.0
1085.0
1080.0
1078.0
1072.0
1072.0
1073.0
1071.0
1065.0
1062.0
1057.0
1056.0
1058.0
1062.0
1057.0
1054.0
1051.0
1049.0
1050.0
1054.0
1054.0
1051.0
1047.0
1051.0
1051.0
1050.0
1049.0
1047.0
1045.0
1045.0
1047.0
1050.0
1049.0
1046.0
1044.0
1042.0
1041.0
1043.0
1044.0
1045.0
1041.0
1039.0
1043.0
1044.0
1042.0
1040.0
1036.0
1038.0
1037.0
1042.0
1040.0
1036.0
1034.0
1034.0
1037.0
1040.0
1039.0
1036.0
1034.0
1032.0
1035.0
1040.0
1037.0
1036.0
1035.0
1038.0
1039.0
1040.0
1038.0
1032.0
1033.0
1035.0
1041.0
1043.0
1039.0
1038.0
1033.0
1034.0
1037.0
1042.0
1039.0
1037.0
1035.0
1034.0
1035.0
1038.0
1037.0
1032.0
1033.0
1033.0
1039.0
1039.0
1036.0
1032.0
1031.0
1032.0
1033.0
1037.0
1033.0
1033.0
1029.0
1027.0
1031.0
1033.0
1035.0
1031.0
1029.0
1029.0
1032.0
1034.0
1032.0
1032.0
1028.0
1028.0
1031.0
1034.0
1031.0
1028.0
1026.0
1027.0
1030.0
1033.0
1031.0
1031.0
1025.0
1027.0
1032.0
1031.0
1032.0
1028.0
1027.0
1027.0
1029.0
1026.0
1030.0
1029.0
1027.0
1026.0
1028.0
1031.0
1028.0
1027.0
1024.0
1026.0
1031.0
1032.0
1031.0
1027.0
1026.0
1029.0
1029.0
1032.0
1029.0
1027.0
1025.0
1027.0
1029.0
1031.0
1029.0
1030.0
1028.0
1028.0
1030.0
1033.0
1032.0
1030.0
1029.0
1027.0
1028.0
1032.0
1029.0
1029.0
1029.0
1028.0
1032.0
1034.0
1033.0
1032.0
1032.0
1033.0
1039.0
1041.0
1039.0
1039.0
1036.0
1038.0
1042.0
1044.0
1044.0
1041.0
1038.0
1040.0
1040.0
1041.0
1038.0
1034.0
1032.0
1035.0
1039.0
1041.0
1037.0
1037.0
1037.0
1036.0
1042.0
1046.0
1046.0
1042.0
1040.0
1037.0
1039.0
1037.0
1031.0
1030.0
1028.0
1029.0
1032.0
1033.0
1034.0
1032.0
1029.0
1030.0
1035.0
1034.0
1033.0
1033.0
1030.0
1030.0
1034.0
1033.0
1031.0
1032.0
1028.0
1030.0
1036.0
1036.0
1037.0
1031.0
1032.0
1031.0
1033.0
1037.0
1035.0
1035.0
1033.0
1038.0
1039.0
1046.0
1048.0
1049.0
1056.0
1066.0
1077.0
1091.0
1096.0
1103.0
1120.0
1146.0
1181.0
1215.0
1242.0
1273.0
1300.0
1337.0
1379.0
1423.0
1456.0
1465.0
1439.0
1374.0
1278.0
1180.0
1104.0
1057.0
1033.0
1031.0
1032.0
1039.0
1036.0
1029.0
1026.0
1024.0
1025.0
1021.0
1019.0
1014.0
1010.0
1010.0
1014.0
1011.0
1010.0
1008.0
1006.0
1009.0
1012.0
1011.0
1009.0
1008.0
1004.0
1006.0
1008.0
1008.0
1008.0
1007.0
1003.0
1002.0
1003.0
1006.0
1004.0
1003.0
999.0
1000.0
1002.0
1005.0
1003.0
1000.0
996.0
996.0
1002.0
1004.0
1001.0
998.0
996.0
997.0
997.0
1002.0
998.0
996.0
994.0
995.0
998.0
1003.0
999.0
997.0
997.0
999.0
1001.0
1003.0
1001.0
997.0
999.0
1000.0
1003.0
1009.0
1006.0
1003.0
1002.0
1001.0
1006.0
1009.0
1009.0
1008.0
1006.0
1010.0
1014.0
1016.0
1017.0
1015.0
1017.0
1021.0
1024.0
1031.0
1030.0
1032.0
1032.0
1036.0
1043.0
1047.0
1045.0
1049.0
1049.0
1054.0
1061.0
1065.0
1067.0
1061.0
1061.0
1065.0
1064.0
1068.0
1066.0
1061.0
1059.0
1059.0
1058.0
1063.0
1056.0
1049.0
1049.0
1047.0
1046.0
1048.0
1046.0
1041.0
1039.0
1037.0
1041.0
1043.0
1039.0
1038.0
1036.0
1036.0
1039.0
1039.0
1036.0
1034.0
1033.0
1033.0
1037.0
1038.0
1036.0
1032.0
1029.0
1032.0
1035.0
1036.0
1035.0
1031.0
1029.0
1030.0
1032.0
1032.0
1033.0
1033.0
1030.0
1032.0
1033.0
1033.0
1035.0
1029.0
1027.0
1028.0
1032.0
1034.0
1032.0
1031.0
1031.0
1030.0
1031.0
1034.0
1037.0
1031.0
1031.0
1033.0
1035.0
1035.0
1036.0
1035.0
1031.0
1033.0
1036.0
1039.0
1037.0
1033.0
1030.0
1030.0
1035.0
1036.0
1033.0
1033.0
1030.0
1031.0
1034.0
1038.0
1035.0
1033.0
1030.0
1031.0
1033.0
1031.0
1033.0
1027.0
1027.0
1028.0
1029.0
1033.0
1031.0
1027.0
1025.0
1025.0
1030.0
1031.0
1031.0
1029.0
1026.0
1027.0
1029.0
1032.0
1027.0
1026.0
1025.0
1026.0
1029.0
1031.0
1030.0
1027.0
1025.0
1027.0
1030.0
1032.0
1030.0
1028.0
1026.0
1030.0
1030.0
1032.0
1031.0
1029.0
1026.0
1026.0
1030.0
1030.0
1029.0
1025.0
1026.0
1029.0
1032.0
1031.0
1030.0
1025.0
1026.0
1028.0
1030.0
1034.0
1034.0
1027.0
1027.0
1029.0
1033.0
1034.0
1034.0
1029.0
1030.0
1029.0
1032.0
1033.0
1031.0
1028.0
1028.0
1030.0
1033.0
1034.0
1036.0
1031.0
1029.0
1031.0
1035.0
1034.0
1035.0
1032.0
1030.0
1030.0
1033.0
1035.0
1035.0
1033.0
1031.0
1032.0
1037.0
1038.0
1038.0
1037.0
1036.0
1039.0
1042.0
1046.0
1046.0
1040.0
1040.0
1041.0
1045.0
1048.0
1046.0
1044.0
1042.0
1041.0
1044.0
1041.0
1040.0
1038.0
1037.0
1038.0
1042.0
1045.0
1041.0
1040.0
1039.0
1040.0
1043.0
1045.0
1043.0
1040.0
1033.0
1030.0
1031.0
1034.0
1031.0
1031.0
1032.0
1031.0
1034.0
1036.0
1034.0
1032.0
1028.0
1031.0
1033.0
1036.0
1033.0
1030.0
1029.0
1031.0
1035.0
1035.0
1035.0
1031.0
1029.0
1030.0
1034.0
1036.0
1036.0
1030.0
1030.0
1034.0
1036.0
1042.0
1044.0
1047.0
1051.0
1061.0
1076.0
1090.0
1100.0
1111.0
1130.0
1164.0
1206.0
1246.0
1279.0
1313.0
1345.0
1391.0
1441.0
1477.0
1485.0
1451.0
1375.0
1277.0
1175.0
1111.0
1062.0
1034.0
1027.0
1030.0
1035.0
1036.0
1034.0
1027.0
1023.0
1020.0
1019.0
1018.0
1016.0
1011.0
1008.0
1009.0
1012.0
1013.0
1011.0
1005.0
1004.0
1006.0
1006.0
1007.0
1007.0
1006.0
1003.0
1003.0
1003.0
1007.0
1003.0
1002.0
1001.0
1002.0
1003.0
1005.0
1005.0
999.0
998.0
998.0
1002.0
1005.0
1002.0
1000.0
997.0
999.0
1001.0
1004.0
1002.0
999.0
999.0
999.0
1002.0
1004.0
1003.0
1001.0
1001.0
1003.0
1005.0
1007.0
1006.0
1002.0
1002.0
1006.0
1009.0
1008.0
1010.0
1005.0
1006.0
1008.0
1014.0
1014.0
1016.0
1018.0
1018.0
1023.0
1029.0
1034.0
1034.0
1036.0
1039.0
1044.0
1051.0
1058.0
1059.0
1061.0
1063.0
1070.0
1075.0
1076.0
1077.0
1073.0
1072.0
1070.0
1073.0
1071.0
1066.0
1062.0
1058.0
1057.0
1057.0
1057.0
1051.0
1048.0
1043.0
1040.0
1044.0
1044.0
1041.0
1041.0
1038.0
1039.0
1041.0
1044.0
1039.0
1038.0
1036.0
1038.0
1039.0
1039.0
1037.0
1036.0
1034.0
1032.0
1037.0
1037.0
1034.0
1031.0
1028.0
1031.0
1034.0
1036.0
1034.0
1031.0
1029.0
1030.0
1031.0
1033.0
1031.0
1028.0
1025.0
1027.0
1031.0
1033.0
1033.0
1028.0
1026.0
1028.0
1032.0
1036.0
1035.0
1031.0
1028.0
1029.0
1033.0
1034.0
1033.0
1033.0
1030.0
1032.0
1036.0
1037.0
1036.0
1034.0
1032.0
1035.0
1037.0
1039.0
1039.0
1035.0
1033.0
1035.0
1036.0
1040.0
1038.0
1036.0
1034.0
1034.0
1036.0
1039.0
1036.0
1033.0
1032.0
1035.0
1036.0
1036.0
1036.0
1031.0
1028.0
1031.0
1034.0
1034.0
1036.0
1033.0
1031.0
1033.0
1037.0
1034.0
1035.0
1031.0
1032.0
1033.0
1034.0
1035.0
1032.0
1031.0
1027.0
1029.0
1033.0
1034.0
1032.0
1030.0
1028.0
1031.0
1034.0
1036.0
1034.0
1030.0
1028.0
1030.0
1032.0
1033.0
1033.0
1033.0
1028.0
1031.0
1033.0
1034.0
1033.0
1028.0
1027.0
1031.0
1035.0
1034.0
1034.0
1029.0
1028.0
1030.0
1033.0
1036.0
1033.0
1029.0
1030.0
1032.0
1032.0
1033.0
1031.0
1029.0
1030.0
1034.0
1034.0
1036.0
1032.0
1031.0
1031.0
1031.0
1036.0
1035.0
1032.0
1031.0
1030.0
1029.0
1035.0
1035.0
1033.0
1032.0
1030.0
1033.0
1038.0
1041.0
1041.0
1038.0
1039.0
1037.0
1042.0
1045.0
1045.0
1043.0
1043.0
1046.0
1047.0
1048.0
1050.0
1045.0
1043.0
1040.0
1044.0
1043.0
1042.0
1040.0
1039.0
1041.0
1043.0
1044.0
1041.0
1041.0
1040.0
1045.0
1045.0
1047.0
1044.0
1042.0
1037.0
1038.0
1035.0
1036.0
1033.0
1032.0
1032.0
1033.0
1034.0
1037.0
1037.0
1031.0
1031.0
1031.0
1035.0
1040.0
1035.0
1033.0
1029.0
1031.0
1031.0
1033.0
1033.0
1032.0
1031.0
1029.0
1035.0
1035.0
1035.0
1031.0
1032.0
1034.0
1036.0
1038.0
1037.0
1037.0
1035.0
1034.0
1039.0
1044.0
1052.0
1055.0
1061.0
1075.0
1089.0
1098.0
1105.0
1120.0
1141.0
1174.0
1207.0
1233.0
1258.0
1285.0
1313.0
1351.0
1398.0
1433.0
1450.0
1440.0
1402.0
1334.0
1248.0
1165.0
1100.0
1058.0
1033.0
1022.0
1027.0
1032.0
1030.0
1030.0
1024.0
1027.0
1026.0
1026.0
1023.0
1018.0
1013.0
1013.0
1015.0
1016.0
1012.0
1012.0
1011.0
1010.0
1013.0
1013.0
1014.0
1008.0
1005.0
1007.0
1008.0
1009.0
1009.0
1005.0
1006.0
1008.0
1009.0
1007.0
1006.0
1005.0
1002.0
1006.0
1008.0
1007.0
1006.0
1000.0
999.0
1002.0
1006.0
1009.0
1004.0
1002.0
999.0
1002.0
1006.0
1005.0
1005.0
1001.0
999.0
1001.0
1004.0
1007.0
1006.0
1000.0
998.0
1000.0
1002.0
1005.0
1004.0
1002.0
1003.0
1004.0
1008.0
1010.0
1008.0
1004.0
1004.0
1006.0
1010.0
1012.0
1010.0
1008.0
1008.0
1009.0
1012.0
1012.0
1013.0
1012.0
1011.0
1015.0
1021.0
1021.0
1019.0
1018.0
1018.0
1022.0
1027.0
1030.0
1030.0
1031.0
1030.0
1033.0
1039.0
1042.0
1044.0
1045.0
1048.0
1053.0
1055.0
1063.0
1063.0
1064.0
1065.0
1068.0
1070.0
1073.0
1069.0
1065.0
1065.0
1065.0
1067.0
1067.0
1065.0
1063.0
1059.0
1058.0
1056.0
1055.0
1051.0
1045.0
1044.0
1041.0
1043.0
1043.0
1040.0
1036.0
1036.0
1039.0
1041.0
1041.0
1039.0
1036.0
1034.0
1035.0
1039.0
1039.0
1037.0
1034.0
1032.0
1033.0
1033.0
1032.0
1032.0
1030.0
1028.0
1029.0
1031.0
1031.0
1031.0
1027.0
1023.0
1027.0
1029.0
1030.0
1028.0
1025.0
1024.0
1022.0
1024.0
1026.0
1022.0
1021.0
1022.0
1023.0
1025.0
1028.0
1025.0
1023.0
1023.0
1027.0
1028.0
1028.0
1024.0
1025.0
1024.0
1024.0
1029.0
1030.0
1028.0
1027.0
1023.0
1023.0
1028.0
1027.0
1026.0
1024.0
1025.0
1027.0
1029.0
1028.0
1028.0
1024.0
1022.0
1024.0
1027.0
1027.0
1025.0
1024.0
1023.0
1022.0
1027.0
1027.0
1026.0
1025.0
1022.0
1023.0
1025.0
1026.0
1025.0
1022.0
1023.0
1023.0
1025.0
1025.0
1023.0
1021.0
1021.0
1021.0
1024.0
1024.0
1024.0
1022.0
1020.0
1021.0
1023.0
1023.0
1024.0
1019.0
1021.0
1020.0
1024.0
1024.0
1022.0
1021.0
1020.0
1021.0
1024.0
1024.0
1024.0
1022.0
1019.0
1023.0
1023.0
1025.0
1023.0
1020.0
1018.0
1022.0
1025.0
1025.0
1024.0
1023.0
1021.0
1022.0
1025.0
1026.0
1023.0
1023.0
1021.0
1023.0
1024.0
1026.0
1026.0
1023.0
1022.0
1024.0
1027.0
1028.0
1027.0
1022.0
1023.0
1024.0
1026.0
1027.0
1025.0
1022.0
1022.0
1025.0
1028.0
1027.0
1028.0
1023.0
1024.0
1025.0
1029.0
1029.0
1025.0
1024.0
1020.0
1027.0
1027.0
1025.0
1028.0
1024.0
1023.0
1025.0
1029.0
1029.0
1032.0
1030.0
1030.0
1031.0
1036.0
1034.0
1035.0
1033.0
1031.0
1035.0
1039.0
1039.0
1038.0
1034.0
1033.0
1035.0
1033.0
1034.0
1033.0
1031.0
1029.0
1030.0
1034.0
1035.0
1032.0
1032.0
1031.0
1033.0
1038.0
1037.0
1035.0
1031.0
1029.0
1029.0
1028.0
1028.0
1027.0
1023.0
1022.0
1024.0
1029.0
1026.0
1027.0
1024.0
1023.0
1025.0
1025.0
1029.0
1028.0
1022.0
1022.0
1023.0
1025.0
1025.0
1027.0
1025.0
1024.0
1024.0
1027.0
1028.0
1026.0
1025.0
1023.0
1026.0
1030.0
1028.0
1028.0
1026.0
1026.0
1028.0
1031.0
1036.0
1040.0
1040.0
1046.0
1057.0
1073.0
1082.0
1087.0
1096.0
1111.0
1139.0
1170.0
1202.0
1231.0
1259.0
1292.0
1325.0
1366.0
1412.0
1447.0
1461.0
1444.0
1390.0
1304.0
1208.0
1126.0
1074.0
1041.0
1025.0
1025.0
1026.0
1026.0
1024.0
1021.0
1022.0
1024.0
1021.0
1015.0
1008.0
1007.0
1006.0
1008.0
1008.0
1005.0
1000.0
1001.0
1003.0
1006.0
1004.0
1001.0
998.0
999.0
1005.0
1005.0
1003.0
1002.0
1000.0
998.0
999.0
1001.0
999.0
999.0
997.0
995.0
999.0
1002.0
999.0
997.0
994.0
993.0
994.0
997.0
999.0
994.0
994.0
992.0
993.0
994.0
995.0
994.0
992.0
992.0
994.0
996.0
994.0
995.0
994.0
994.0
998.0
999.0
1000.0
1000.0
996.0
995.0
997.0
999.0
1002.0
1006.0
999.0
1002.0
1003.0
1004.0
1007.0
1007.0
1005.0
1006.0
1010.0
1013.0
1013.0
1012.0
1010.0
1012.0
1016.0
1023.0
1025.0
1022.0
1024.0
1026.0
1030.0
1032.0
1040.0
1037.0
1040.0
1041.0
1047.0
1053.0
1055.0
1058.0
1055.0
1061.0
1063.0
1067.0
1071.0
1070.0
1069.0
1067.0
1069.0
1070.0
1070.0
1068.0
1063.0
1062.0
1062.0
1062.0
1060.0
1055.0
1050.0
1047.0
1049.0
1050.0
1048.0
1045.0
1042.0
1038.0
1038.0
1041.0
1041.0
1040.0
1038.0
1037.0
1034.0
1037.0
1037.0
1035.0
1031.0
1031.0
1032.0
1035.0
1037.0
1036.0
1033.0
1030.0
1033.0
1035.0
1036.0
1035.0
1029.0
1030.0
1031.0
1033.0
1034.0
1030.0
1027.0
1030.0
1029.0
1031.0
1033.0
1030.0
1028.0
1028.0
1029.0
1030.0
1031.0
1029.0
1025.0
1026.0
1029.0
1031.0
1029.0
1030.0
1030.0
1027.0
1029.0
1032.0
1033.0
1032.0
1028.0
1028.0
1031.0
1033.0
1036.0
1033.0
1030.0
1029.0
1030.0
1032.0
1033.0
1033.0
1029.0
1028.0
1031.0
1034.0
1034.0
1032.0
1028.0
1029.0
1028.0
1033.0
1035.0
1030.0
1029.0
1028.0
1031.0
1033.0
1030.0
1028.0
1026.0
1028.0
1028.0
1031.0
1032.0
1031.0
1027.0
1027.0
1032.0
1032.0
1030.0
1028.0
1029.0
1027.0
1027.0
1030.0
1029.0
1027.0
1025.0
1025.0
1029.0
1031.0
1031.0
1027.0
1023.0
1024.0
1027.0
1029.0
1029.0
1027.0
1025.0
1025.0
1028.0
1030.0
1031.0
1028.0
1026.0
1025.0
1027.0
1029.0
1030.0
1027.0
1026.0
1024.0
1027.0
1027.0
1029.0
1026.0
1026.0
1022.0
1024.0
1026.0
1028.0
1026.0
1024.0
1024.0
1027.0
1028.0
1029.0
1028.0
1026.0
1025.0
1027.0
1032.0
1031.0
1029.0
1023.0
1025.0
1026.0
1028.0
1028.0
1026.0
1025.0
1025.0
1026.0
1031.0
1030.0
1030.0
1025.0
1024.0
1027.0
1029.0
1030.0
1027.0
1025.0
1025.0
1026.0
1029.0
1029.0
1027.0
1024.0
1024.0
1027.0
1028.0
1029.0
1031.0
1025.0
1028.0
1033.0
1036.0
1036.0
1037.0
1035.0
1034.0
1036.0
1041.0
1043.0
1042.0
1039.0
1038.0
1043.0
1043.0
1042.0
1036.0
1032.0
1031.0
1034.0
1037.0
1039.0
1033.0
1035.0
1031.0
1036.0
1040.0
1042.0
1040.0
1035.0
1035.0
1036.0
1036.0
1033.0
1028.0
1026.0
1025.0
1027.0
1027.0
1030.0
1029.0
1026.0
1027.0
1027.0
1030.0
1031.0
1028.0
1026.0
1027.0
1027.0
1030.0
1033.0
1030.0
1027.0
1026.0
1027.0
1031.0
1030.0
1027.0
1027.0
1025.0
1028.0
1030.0
1031.0
1028.0
1031.0
1030.0
1037.0
1043.0
1046.0
1051.0
1055.0
1067.0
1080.0
1094.0
1103.0
1121.0
1143.0
1174.0
1211.0
1250.0
1281.0
1314.0
1344.0
1385.0
1432.0
1466.0
1475.0
1455.0
1396.0
1309.0
1212.0
1133.0
1082.0
1046.0
1025.0
1021.0
1027.0
1031.0
1032.0
1026.0
1025.0
1022.0
1017.0
1018.0
1013.0
1012.0
1011.0
1008.0
1008.0
1013.0
1010.0
1010.0
1004.0
1004.0
1007.0
1009.0
1006.0
1005.0
1004.0
1004.0
1006.0
1006.0
1006.0
1005.0
1001.0
1002.0
1002.0
1005.0
1003.0
1002.0
997.0
998.0
1001.0
1002.0
