# Simple Text Format
# Sampling Rate (Hz):= 360.00
# Resolution:= 12
# Labels:= ECG
1050.0
1050.0
1043.0
1035.0
1032.0
1033.0
1038.0
1041.0
1040.0
1038.0
1037.0
1038.0
1034.0
1033.0
1033.0
1034.0
1031.0
1034.0
1038.0
1041.0
1034.0
1026.0
1026.0
1029.0
1032.0
1036.0
1034.0
1032.0
1030.0
1029.0
1030.0
1035.0
1031.0
1035.0
1033.0
1037.0
1036.0
1033.0
1027.0
1021.0
1023.0
1029.0
1032.0
1031.0
1026.0
1021.0
1021.0
1023.0
1025.0
1026.0
1022.0
1021.0
1024.0
1028.0
1025.0
1022.0
1022.0
1017.0
1017.0
1023.0
1028.0
1030.0
1029.0
1022.0
1016.0
1017.0
1021.0
1026.0
1027.0
1024.0
1022.0
1023.0
1026.0
1021.0
1017.0
1015.0
1022.0
1024.0
1028.0
1027.0
1023.0
1022.0
1018.0
1016.0
1017.0
1017.0
1019.0
1020.0
1017.0
1020.0
1025.0
1028.0
1028.0
1024.0
1022.0
1023.0
1022.0
1021.0
1022.0
1023.0
1022.0
1018.0
1018.0
1016.0
1017.0
1019.0
1018.0
1021.0
1026.0
1029.0
1027.0
1022.0
1016.0
1019.0
1021.0
1023.0
1023.0
1022.0
1022.0
1023.0
1024.0
1025.0
1020.0
1021.0
1024.0
1028.0
1023.0
1017.0
1015.0
1017.0
1020.0
1023.0
1027.0
1029.0
1026.0
1021.0
1022.0
1025.0
1024.0
1024.0
1020.0
1013.0
1015.0
1019.0
1023.0
1027.0
1025.0
1022.0
1023.0
1027.0
1024.0
1019.0
1014.0
1015.0
1019.0
1025.0
1027.0
1025.0
1023.0
1020.0
1022.0
1025.0
1032.0
1030.0
1031.0
1030.0
1032.0
1036.0
1034.0
1034.0
1030.0
1025.0
1024.0
1024.0
1030.0
1035.0
1036.0
1032.0
1029.0
1036.0
1040.0
1041.0
1034.0
1025.0
1023.0
1030.0
1034.0
1038.0
1031.0
1026.0
1021.0
1024.0
1024.0
1022.0
1020.0
1022.0
1021.0
1021.0
1021.0
1024.0
1022.0
1018.0
1017.0
1022.0
1023.0
1024.0
1024.0
1021.0
1018.0
1019.0
1024.0
1023.0
1020.0
1014.0
1013.0
1017.0
1024.0
1021.0
1017.0
1016.0
1015.0
1021.0
1027.0
1030.0
1035.0
1036.0
1038.0
1045.0
1055.0
1072.0
1090.0
1107.0
1128.0
1160.0
1198.0
1239.0
1280.0
1320.0
1359.0
1393.0
1423.0
1453.0
1486.0
1513.0
1527.0
1523.0
1497.0
1442.0
1360.0
1271.0
1201.0
1149.0
1107.0
1073.0
1055.0
1040.0
1031.0
1029.0
1028.0
1020.0
1011.0
1004.0
998.0
994.0
993.0
994.0
991.0
988.0
984.0
982.0
977.0
977.0
978.0
978.0
978.0
979.0
981.0
981.0
977.0
977.0
974.0
974.0
973.0
971.0
970.0
968.0
966.0
966.0
971.0
971.0
970.0
967.0
965.0
965.0
966.0
966.0
964.0
963.0
963.0
966.0
964.0
961.0
953.0
953.0
953.0
961.0
962.0
957.0
952.0
953.0
955.0
958.0
961.0
960.0
956.0
952.0
952.0
956.0
958.0
959.0
958.0
954.0
952.0
955.0
956.0
954.0
952.0
951.0
951.0
955.0
957.0
957.0
955.0
956.0
959.0
965.0
967.0
965.0
966.0
967.0
972.0
976.0
984.0
987.0
990.0
990.0
994.0
1003.0
1010.0
1015.0
1013.0
1018.0
1023.0
1026.0
1028.0
1036.0
1039.0
1039.0
1040.0
1043.0
1048.0
1052.0
1049.0
1045.0
1041.0
1041.0
1047.0
1043.0
1035.0
1030.0
1030.0
1036.0
1038.0
1036.0
1031.0
1028.0
1027.0
1030.0
1037.0
1039.0
1035.0
1028.0
1022.0
1021.0
1029.0
1031.0
1032.0
1030.0
1030.0
1029.0
1028.0
1024.0
1019.0
1016.0
1019.0
1021.0
1022.0
1023.0
1025.0
1023.0
1025.0
1026.0
1028.0
1027.0
1024.0
1022.0
1024.0
1023.0
1023.0
1021.0
1020.0
1021.0
1022.0
1025.0
1024.0
1021.0
1020.0
1018.0
1019.0
1022.0
1023.0
1020.0
1018.0
1019.0
1021.0
1023.0
1024.0
1024.0
1028.0
1024.0
1021.0
1022.0
1020.0
1021.0
1023.0
1019.0
1019.0
1023.0
1026.0
1026.0
1023.0
1019.0
1019.0
1022.0
1025.0
1027.0
1021.0
1021.0
1022.0
1024.0
1026.0
1025.0
1027.0
1023.0
1023.0
1022.0
1026.0
1030.0
1023.0
1015.0
1016.0
1019.0
1020.0
1018.0
1017.0
1014.0
1016.0
1018.0
1021.0
1021.0
1019.0
1017.0
1017.0
1019.0
1022.0
1023.0
1023.0
1018.0
1021.0
1022.0
1027.0
1026.0
1021.0
1020.0
1021.0
1023.0
1024.0
1021.0
1017.0
1014.0
1011.0
1017.0
1022.0
1023.0
1020.0
1019.0
1017.0
1018.0
1023.0
1020.0
1020.0
1017.0
1019.0
1019.0
1025.0
1027.0
1024.0
1019.0
1016.0
1022.0
1024.0
1022.0
1021.0
1017.0
1018.0
1021.0
1024.0
1026.0
1025.0
1025.0
1027.0
1023.0
1018.0
1017.0
1018.0
1017.0
1019.0
1019.0
1025.0
1027.0
1028.0
1031.0
1034.0
1034.0
1032.0
1031.0
1030.0
1035.0
1039.0
1041.0
1044.0
1039.0
1036.0
1031.0
1028.0
1033.0
1038.0
1039.0
1033.0
1028.0
1028.0
1032.0
1038.0
1040.0
1037.0
1038.0
1037.0
1034.0
1037.0
1034.0
1029.0
1025.0
1026.0
1027.0
1029.0
1030.0
1029.0
1023.0
1022.0
1026.0
1026.0
1030.0
1029.0
1025.0
1023.0
1021.0
1025.0
1024.0
1023.0
1021.0
1024.0
1026.0
1029.0
1030.0
1028.0
1025.0
1024.0
1026.0
1031.0
1029.0
1031.0
1031.0
1032.0
1034.0
1040.0
1043.0
1048.0
1059.0
1073.0
1088.0
1100.0
1116.0
1140.0
1178.0
1223.0
1270.0
1309.0
1346.0
1374.0
1402.0
1434.0
1476.0
1502.0
1503.0
1469.0
1397.0
1303.0
1210.0
1145.0
1102.0
1071.0
1055.0
1046.0
1041.0
1041.0
1039.0
1034.0
1022.0
1015.0
1009.0
1011.0
1009.0
1007.0
1002.0
996.0
999.0
1000.0
1003.0
997.0
990.0
988.0
991.0
994.0
995.0
992.0
990.0
992.0
989.0
991.0
992.0
992.0
988.0
986.0
985.0
983.0
985.0
985.0
983.0
980.0
983.0
985.0
986.0
981.0
976.0
977.0
981.0
981.0
979.0
976.0
972.0
975.0
978.0
979.0
977.0
974.0
972.0
969.0
968.0
975.0
973.0
971.0
971.0
973.0
973.0
977.0
975.0
974.0
971.0
971.0
973.0
974.0
972.0
974.0
974.0
979.0
982.0
984.0
990.0
987.0
986.0
987.0
993.0
999.0
1001.0
1004.0
1006.0
1011.0
1019.0
1025.0
1030.0
1029.0
1030.0
1036.0
1041.0
1047.0
1050.0
1051.0
1048.0
1048.0
1049.0
1052.0
1051.0
1049.0
1047.0
1049.0
1049.0
1050.0
1046.0
1042.0
1038.0
1036.0
1038.0
1039.0
1038.0
1038.0
1032.0
1031.0
1032.0
1033.0
1035.0
1033.0
1030.0
1029.0
1031.0
1032.0
1031.0
1029.0
1023.0
1025.0
1024.0
1028.0
1027.0
1025.0
1023.0
1025.0
1026.0
1027.0
1028.0
1023.0
1022.0
1022.0
1020.0
1021.0
1022.0
1022.0
1019.0
1023.0
1025.0
1026.0
1022.0
1018.0
1016.0
1016.0
1020.0
1024.0
1024.0
1022.0
1021.0
1020.0
1017.0
1022.0
1023.0
1018.0
1019.0
1018.0
1018.0
1023.0
1023.0
1020.0
1018.0
1017.0
1020.0
1023.0
1023.0
1017.0
1019.0
1018.0
1021.0
1023.0
1020.0
1020.0
1021.0
1019.0
1020.0
1022.0
1022.0
1020.0
1018.0
1017.0
1015.0
1017.0
1018.0
1018.0
1016.0
1016.0
1020.0
1022.0
1023.0
1018.0
1016.0
1015.0
1018.0
1019.0
1020.0
1016.0
1015.0
1013.0
1015.0
1017.0
1016.0
1013.0
1009.0
1009.0
1014.0
1019.0
1017.0
1018.0
1014.0
1016.0
1014.0
1017.0
1017.0
1017.0
1013.0
1011.0
1015.0
1019.0
1020.0
1018.0
1013.0
1013.0
1015.0
1018.0
1017.0
1017.0
1012.0
1011.0
1013.0
1014.0
1016.0
1016.0
1012.0
1009.0
1012.0
1013.0
1016.0
1012.0
1014.0
1013.0
1016.0
1016.0
1013.0
1013.0
1011.0
1012.0
1014.0
1017.0
1016.0
1013.0
1012.0
1013.0
1015.0
1017.0
1014.0
1015.0
1011.0
1013.0
1012.0
1016.0
1014.0
1008.0
1009.0
1010.0
1013.0
1019.0
1018.0
1019.0
1017.0
1019.0
1020.0
1026.0
1025.0
1023.0
1022.0
1023.0
1025.0
1029.0
1026.0
1022.0
1019.0
1016.0
1020.0
1021.0
1023.0
1023.0
1019.0
1020.0
1023.0
1028.0
1031.0
1027.0
1024.0
1024.0
1026.0
1028.0
1024.0
1018.0
1015.0
1015.0
1017.0
1018.0
1016.0
1012.0
1012.0
1014.0
1013.0
1017.0
1019.0
1018.0
1016.0
1015.0
1017.0
1016.0
1016.0
1016.0
1013.0
1012.0
1015.0
1017.0
1015.0
1013.0
1012.0
1013.0
1017.0
1017.0
1016.0
1014.0
1016.0
1017.0
1021.0
1028.0
1032.0
1038.0
1047.0
1062.0
1080.0
1098.0
1118.0
1145.0
1180.0
1224.0
1271.0
1315.0
1353.0
1388.0
1419.0
1454.0
1496.0
1523.0
1529.0
1509.0
1458.0
1373.0
1274.0
1191.0
1129.0
1083.0
1055.0
1040.0
1031.0
1026.0
1019.0
1015.0
1008.0
1002.0
997.0
993.0
987.0
984.0
979.0
979.0
981.0
983.0
982.0
978.0
972.0
973.0
975.0
972.0
970.0
966.0
965.0
967.0
969.0
969.0
968.0
963.0
961.0
962.0
965.0
965.0
965.0
962.0
958.0
957.0
958.0
961.0
960.0
958.0
958.0
957.0
956.0
960.0
956.0
950.0
950.0
950.0
953.0
953.0
953.0
952.0
947.0
949.0
952.0
954.0
952.0
951.0
950.0
950.0
949.0
951.0
948.0
948.0
944.0
946.0
950.0
954.0
952.0
948.0
945.0
945.0
947.0
953.0
952.0
949.0
947.0
952.0
955.0
959.0
960.0
963.0
963.0
965.0
971.0
979.0
983.0
987.0
990.0
996.0
1003.0
1011.0
1013.0
1018.0
1019.0
1023.0
1027.0
1031.0
1034.0
1032.0
1030.0
1031.0
1036.0
1039.0
1036.0
1036.0
1030.0
1030.0
1028.0
1024.0
1023.0
1022.0
1019.0
1022.0
1024.0
1028.0
1026.0
1021.0
1018.0
1015.0
1017.0
1020.0
1020.0
1019.0
1021.0
1022.0
1021.0
1020.0
1017.0
1018.0
1018.0
1017.0
1018.0
1021.0
1016.0
1018.0
1015.0
1017.0
1018.0
1019.0
1016.0
1015.0
1013.0
1013.0
1016.0
1018.0
1015.0
1009.0
1007.0
1009.0
1008.0
1011.0
1012.0
1007.0
1007.0
1005.0
1010.0
1010.0
1010.0
1008.0
1003.0
1007.0
1007.0
1011.0
1011.0
1011.0
1010.0
1009.0
1011.0
1013.0
1011.0
1009.0
1005.0
1007.0
1007.0
1012.0
1010.0
1010.0
1007.0
1011.0
1009.0
1013.0
1012.0
1011.0
1009.0
1006.0
1009.0
1012.0
1012.0
1010.0
1010.0
1011.0
1012.0
1012.0
1011.0
1011.0
1008.0
1007.0
1011.0
1016.0
1013.0
1011.0
1006.0
1010.0
1012.0
1017.0
1016.0
1013.0
1009.0
1010.0
1012.0
1014.0
1013.0
1013.0
1011.0
1011.0
1013.0
1013.0
1010.0
1007.0
1006.0
1006.0
1009.0
1009.0
1008.0
1007.0
1005.0
1007.0
1009.0
1012.0
1012.0
1011.0
1012.0
1013.0
1010.0
1011.0
1008.0
1008.0
1007.0
1008.0
1011.0
1013.0
1010.0
1012.0
1008.0
1007.0
1010.0
1015.0
1012.0
1010.0
1009.0
1009.0
1012.0
1016.0
1017.0
1015.0
1010.0
1010.0
1010.0
1014.0
1013.0
1012.0
1012.0
1012.0
1016.0
1016.0
1016.0
1017.0
1017.0
1023.0
1026.0
1030.0
1027.0
1023.0
1023.0
1026.0
1025.0
1025.0
1023.0
1021.0
1021.0
1023.0
1024.0
1025.0
1026.0
1024.0
1023.0
1027.0
1031.0
1035.0
1035.0
1030.0
1026.0
1023.0
1019.0
1018.0
1016.0
1019.0
1017.0
1015.0
1017.0
1020.0
1017.0
1015.0
1013.0
1012.0
1016.0
1021.0
1020.0
1015.0
1012.0
1012.0
1015.0
1019.0
1018.0
1018.0
1016.0
1018.0
1016.0
1018.0
1018.0
1017.0
1018.0
1023.0
1028.0
1035.0
1040.0
1051.0
1060.0
1082.0
1105.0
1134.0
1167.0
1208.0
1256.0
1309.0
1358.0
1399.0
1433.0
1465.0
1503.0
1532.0
1546.0
1542.0
1500.0
1419.0
1320.0
1239.0
1173.0
1129.0
1091.0
1068.0
1052.0
1038.0
1034.0
1028.0
1020.0
1009.0
998.0
992.0
992.0
994.0
989.0
985.0
981.0
981.0
981.0
979.0
974.0
969.0
968.0
970.0
970.0
972.0
970.0
969.0
967.0
967.0
967.0
967.0
967.0
963.0
959.0
960.0
965.0
967.0
970.0
964.0
960.0
959.0
961.0
962.0
962.0
957.0
956.0
956.0
959.0
963.0
960.0
955.0
952.0
953.0
955.0
956.0
953.0
953.0
951.0
952.0
957.0
959.0
957.0
953.0
951.0
949.0
953.0
954.0
951.0
948.0
945.0
946.0
947.0
950.0
951.0
952.0
949.0
949.0
952.0
957.0
959.0
960.0
960.0
961.0
967.0
972.0
974.0
977.0
980.0
988.0
995.0
1004.0
1006.0
1008.0
1013.0
1017.0
1027.0
1035.0
1040.0
1044.0
1044.0
1047.0
1050.0
1052.0
1052.0
1047.0
1046.0
1047.0
1051.0
1047.0
1041.0
1039.0
1035.0
1038.0
1038.0
1041.0
1040.0
1040.0
1032.0
1030.0
1028.0
1035.0
1032.0
1030.0
1027.0
1026.0
1027.0
1031.0
1032.0
1031.0
1027.0
1029.0
1032.0
1035.0
1032.0
1030.0
1025.0
1027.0
1031.0
1035.0
1031.0
1022.0
1020.0
1020.0
1020.0
1026.0
1025.0
1027.0
1022.0
1021.0
1021.0
1023.0
1024.0
1023.0
1020.0
1019.0
1022.0
1023.0
1022.0
1020.0
1018.0
1020.0
1019.0
1023.0
1023.0
1020.0
1018.0
1020.0
1020.0
1021.0
1020.0
1020.0
1019.0
1016.0
1021.0
1021.0
1023.0
1022.0
1021.0
1021.0
1021.0
1025.0
1024.0
1023.0
1025.0
1023.0
1024.0
1027.0
1025.0
1021.0
1021.0
1021.0
1024.0
1030.0
1029.0
1027.0
1024.0
1023.0
1026.0
1027.0
1031.0
1033.0
1031.0
1029.0
1027.0
1025.0
1022.0
1018.0
1017.0
1021.0
1027.0
1030.0
1025.0
1022.0
1017.0
1017.0
1022.0
1024.0
1025.0
1023.0
1021.0
1021.0
1024.0
1027.0
1027.0
1023.0
1019.0
1022.0
1021.0
1027.0
1025.0
1022.0
1018.0
1020.0
1023.0
1026.0
1026.0
1024.0
1022.0
1024.0
1024.0
1028.0
1025.0
1024.0
1025.0
1025.0
1030.0
1034.0
1030.0
1025.0
1022.0
1020.0
1023.0
1024.0
1022.0
1022.0
1018.0
1016.0
1022.0
1025.0
1025.0
1019.0
1021.0
1024.0
1028.0
1028.0
1028.0
1026.0
1026.0
1027.0
1031.0
1034.0
1034.0
1032.0
1033.0
1037.0
1042.0
1051.0
1044.0
1037.0
1024.0
1021.0
1026.0
1032.0
1037.0
1033.0
1031.0
1031.0
1034.0
1035.0
1036.0
1036.0
1035.0
1033.0
1037.0
1044.0
1041.0
1037.0
1028.0
1025.0
1023.0
1026.0
1026.0
1025.0
1024.0
1023.0
1023.0
1026.0
1024.0
1028.0
1024.0
1026.0
1025.0
1027.0
1023.0
1019.0
1020.0
1022.0
1026.0
1026.0
1023.0
1021.0
1018.0
1018.0
1021.0
1027.0
1027.0
1026.0
1022.0
1024.0
1029.0
1035.0
1042.0
1047.0
1058.0
1081.0
1110.0
1147.0
1195.0
1253.0
1319.0
1382.0
1435.0
1479.0
1521.0
1552.0
1562.0
1538.0
1479.0
1383.0
1272.0
1185.0
1129.0
1094.0
1068.0
1054.0
1044.0
1035.0
1026.0
1020.0
1014.0
1007.0
1001.0
995.0
990.0
991.0
995.0
995.0
988.0
980.0
976.0
981.0
986.0
982.0
976.0
973.0
970.0
969.0
969.0
974.0
971.0
970.0
964.0
964.0
966.0
970.0
967.0
968.0
968.0
966.0
968.0
967.0
965.0
962.0
959.0
959.0
959.0
965.0
963.0
967.0
962.0
962.0
959.0
960.0
961.0
959.0
955.0
955.0
958.0
961.0
961.0
959.0
957.0
958.0
962.0
962.0
960.0
953.0
952.0
957.0
960.0
961.0
962.0
961.0
964.0
968.0
973.0
979.0
981.0
976.0
974.0
977.0
992.0
1003.0
1006.0
1009.0
1018.0
1028.0
1037.0
1038.0
1033.0
1030.0
1035.0
1041.0
1053.0
1059.0
1061.0
1060.0
1055.0
1051.0
1049.0
1054.0
1052.0
1051.0
1048.0
1047.0
1050.0
1049.0
1041.0
1035.0
1034.0
1036.0
1038.0
1042.0
1041.0
1040.0
1039.0
1042.0
1042.0
1046.0
1047.0
1045.0
1038.0
1036.0
1038.0
1038.0
1035.0
1030.0
1032.0
1035.0
1037.0
1038.0
1034.0
1032.0
1035.0
1037.0
1039.0
1038.0
1034.0
1033.0
1027.0
1030.0
1036.0
1040.0
1041.0
1037.0
1033.0
1032.0
1034.0
1030.0
1029.0
1026.0
1031.0
1036.0
1037.0
1037.0
1029.0
1024.0
1019.0
1022.0
1028.0
1034.0
1033.0
1034.0
1029.0
1030.0
1034.0
1038.0
1036.0
1036.0
1031.0
1030.0
1027.0
1031.0
1033.0
1035.0
1032.0
1033.0
1039.0
1040.0
1039.0
1033.0
1029.0
1031.0
1035.0
1035.0
1030.0
1028.0
1031.0
1038.0
1043.0
1044.0
1038.0
1031.0
1028.0
1026.0
1029.0
1031.0
1033.0
1034.0
1036.0
1038.0
1037.0
1036.0
1033.0
1028.0
1030.0
1038.0
1042.0
1047.0
1042.0
1040.0
1038.0
1036.0
1037.0
1036.0
1032.0
1027.0
1028.0
1033.0
1040.0
1046.0
1048.0
1045.0
1040.0
1038.0
1035.0
1037.0
1037.0
1035.0
1036.0
1036.0
1038.0
1041.0
1040.0
1034.0
1035.0
1036.0
1041.0
1041.0
1041.0
1039.0
1036.0
1038.0
1039.0
1037.0
1037.0
1039.0
1035.0
1035.0
1034.0
1035.0
1034.0
1035.0
1034.0
1037.0
1042.0
1041.0
1039.0
1034.0
1031.0
1031.0
1036.0
1038.0
1036.0
1032.0
1032.0
1037.0
1041.0
1047.0
1044.0
1040.0
1035.0
1038.0
1038.0
1041.0
1036.0
1038.0
1036.0
1039.0
1041.0
1043.0
1042.0
1044.0
1044.0
1046.0
1047.0
1048.0
1046.0
1047.0
1045.0
1050.0
1055.0
1059.0
1059.0
1053.0
1046.0
1039.0
1039.0
1043.0
1043.0
1042.0
1043.0
1045.0
1046.0
1049.0
1051.0
1052.0
1051.0
1055.0
1051.0
1055.0
1050.0
1047.0
1041.0
1040.0
1043.0
1044.0
1043.0
1042.0
1038.0
1038.0
1039.0
1041.0
1042.0
1038.0
1033.0
1038.0
1041.0
1044.0
1041.0
1039.0
1034.0
1033.0
1039.0
1042.0
1039.0
1035.0
1032.0
1032.0
1037.0
1039.0
1042.0
1038.0
1035.0
1039.0
1046.0
1050.0
1046.0
1043.0
1046.0
1050.0
1060.0
1074.0
1087.0
1103.0
1117.0
1142.0
1173.0
1215.0
1256.0
1295.0
1330.0
1366.0
1401.0
1435.0
1470.0
1500.0
1516.0
1519.0
1503.0
1457.0
1377.0
1280.0
1202.0
1148.0
1114.0
1095.0
1074.0
1059.0
1050.0
1044.0
1040.0
1038.0
1034.0
1031.0
1023.0
1025.0
1022.0
1022.0
1018.0
1014.0
1013.0
1014.0
1012.0
1008.0
1005.0
1004.0
1003.0
1004.0
1005.0
1004.0
1006.0
1002.0
1002.0
1003.0
1002.0
1002.0
999.0
997.0
995.0
996.0
996.0
994.0
990.0
990.0
991.0
993.0
993.0
991.0
989.0
986.0
984.0
986.0
988.0
988.0
987.0
982.0
980.0
982.0
984.0
988.0
987.0
983.0
981.0
983.0
986.0
986.0
984.0
979.0
975.0
976.0
979.0
984.0
986.0
981.0
976.0
976.0
980.0
980.0
980.0
977.0
978.0
980.0
980.0
979.0
977.0
973.0
973.0
973.0
979.0
984.0
984.0
983.0
981.0
984.0
987.0
991.0
990.0
987.0
989.0
994.0
999.0
1004.0
1004.0
1008.0
1008.0
1009.0
1014.0
1020.0
1025.0
1030.0
1034.0
1041.0
1045.0
1050.0
1051.0
1051.0
1051.0
1053.0
1058.0
1062.0
1062.0
1059.0
1057.0
1060.0
1063.0
1062.0
1057.0
1054.0
1052.0
1054.0
1054.0
1055.0
1053.0
1047.0
1044.0
1045.0
1046.0
1053.0
1053.0
1048.0
1041.0
1033.0
1035.0
1041.0
1041.0
1043.0
1042.0
1043.0
1045.0
1044.0
1040.0
1037.0
1035.0
1036.0
1037.0
1040.0
1040.0
1036.0
1034.0
1034.0
1037.0
1038.0
1035.0
1034.0
1030.0
1032.0
1036.0
1037.0
1035.0
1031.0
1030.0
1029.0
1031.0
1034.0
1032.0
1032.0
1033.0
1034.0
1033.0
1031.0
1028.0
1025.0
1022.0
1026.0
1030.0
1034.0
1034.0
1027.0
1026.0
1028.0
1031.0
1035.0
1033.0
1033.0
1031.0
1032.0
1034.0
1032.0
1030.0
1030.0
1029.0
1030.0
1031.0
1033.0
1034.0
1029.0
1030.0
1032.0
1033.0
1034.0
1032.0
1031.0
1029.0
1030.0
1032.0
1033.0
1031.0
1028.0
1026.0
1025.0
1032.0
1037.0
1037.0
1030.0
1030.0
1031.0
1035.0
1038.0
1032.0
1028.0
1024.0
1026.0
1031.0
1032.0
1028.0
1029.0
1030.0
1027.0
1030.0
1030.0
1031.0
1030.0
1026.0
1027.0
1031.0
1031.0
1031.0
1027.0
1024.0
1022.0
1026.0
1032.0
1032.0
1031.0
1026.0
1025.0
1026.0
1027.0
1027.0
1024.0
1025.0
1026.0
1031.0
1029.0
1027.0
1025.0
1024.0
1027.0
1027.0
1030.0
1028.0
1022.0
1022.0
1027.0
1034.0
1035.0
1032.0
1023.0
1021.0
1022.0
1027.0
1030.0
1028.0
1026.0
1025.0
1027.0
1028.0
1030.0
1028.0
1028.0
1031.0
1031.0
1029.0
1025.0
1022.0
1016.0
1016.0
1021.0
1025.0
1027.0
1027.0
1026.0
1026.0
1026.0
1034.0
1042.0
1041.0
1039.0
1037.0
1040.0
1043.0
1044.0
1043.0
1040.0
1034.0
1036.0
1037.0
1038.0
1039.0
1036.0
1032.0
1029.0
1032.0
1040.0
1045.0
1043.0
1038.0
1037.0
1039.0
1041.0
1038.0
1036.0
1032.0
1033.0
1036.0
1035.0
1030.0
1030.0
1028.0
1033.0
1033.0
1037.0
1033.0
1031.0
1024.0
1025.0
1029.0
1034.0
1030.0
1026.0
1022.0
1025.0
1028.0
1032.0
1033.0
1032.0
1029.0
1030.0
1032.0
1032.0
1033.0
1032.0
1033.0
1037.0
1038.0
1045.0
1045.0
1043.0
1041.0
1050.0
1066.0
1081.0
1090.0
1098.0
1116.0
1143.0
1180.0
1218.0
1256.0
1292.0
1330.0
1366.0
1400.0
1439.0
1474.0
1501.0
1512.0
1498.0
1456.0
1377.0
1277.0
1191.0
1134.0
1098.0
1077.0
1068.0
1059.0
1049.0
1039.0
1034.0
1033.0
1031.0
1025.0
1014.0
1007.0
1004.0
1005.0
1004.0
999.0
994.0
987.0
990.0
993.0
992.0
990.0
986.0
984.0
981.0
987.0
986.0
985.0
979.0
979.0
980.0
981.0
979.0
976.0
972.0
972.0
975.0
977.0
977.0
977.0
972.0
969.0
969.0
967.0
969.0
969.0
968.0
964.0
965.0
965.0
962.0
959.0
957.0
956.0
959.0
965.0
964.0
961.0
957.0
955.0
957.0
961.0
963.0
961.0
958.0
955.0
958.0
960.0
959.0
952.0
948.0
950.0
952.0
955.0
955.0
952.0
949.0
947.0
952.0
954.0
958.0
955.0
957.0
953.0
958.0
960.0
965.0
965.0
965.0
966.0
967.0
972.0
979.0
980.0
981.0
981.0
988.0
995.0
999.0
1005.0
1009.0
1016.0
1019.0
1029.0
1034.0
1035.0
1034.0
1034.0
1032.0
1035.0
1041.0
1041.0
1039.0
1038.0
1033.0
1032.0
1036.0
1034.0
1034.0
1030.0
1031.0
1031.0
1031.0
1031.0
1028.0
1028.0
1027.0
1028.0
1025.0
1021.0
1015.0
1013.0
1021.0
1022.0
1021.0
1020.0
1016.0
1015.0
1015.0
1021.0
1022.0
1018.0
1016.0
1016.0
1018.0
1019.0
1020.0
1018.0
1016.0
1013.0
1018.0
1019.0
1020.0
1016.0
1016.0
1014.0
1019.0
1023.0
1022.0
1019.0
1017.0
1015.0
1016.0
1022.0
1023.0
1022.0
1019.0
1017.0
1017.0
1021.0
1018.0
1016.0
1020.0
1020.0
1015.0
1016.0
1020.0
1020.0
1019.0
1015.0
1020.0
1022.0
1028.0
1026.0
1022.0
1021.0
1019.0
1018.0
1019.0
1020.0
1016.0
1017.0
1017.0
1017.0
1019.0
1019.0
1015.0
1015.0
1014.0
1019.0
1021.0
1016.0
1016.0
1013.0
1018.0
1023.0
1025.0
1020.0
1015.0
1015.0
1016.0
1020.0
1021.0
1017.0
1018.0
1013.0
1019.0
1020.0
1019.0
1015.0
1010.0
1011.0
1015.0
1018.0
1019.0
1018.0
1013.0
1012.0
1013.0
1018.0
1022.0
1019.0
1018.0
1015.0
1014.0
1016.0
1019.0
1018.0
1016.0
1016.0
1019.0
1023.0
1023.0
1017.0
1015.0
1012.0
1014.0
1019.0
1016.0
1016.0
1018.0
1016.0
1019.0
1020.0
1020.0
1016.0
1013.0
1013.0
1015.0
1019.0
1020.0
1020.0
1019.0
1019.0
1027.0
1034.0
1036.0
1041.0
1045.0
1063.0
1084.0
1107.0
1122.0
1125.0
1113.0
1094.0
1061.0
1015.0
951.0
867.0
775.0
684.0
618.0
578.0
561.0
552.0
554.0
566.0
590.0
617.0
651.0
686.0
726.0
769.0
803.0
826.0
845.0
856.0
865.0
879.0
895.0
905.0
917.0
925.0
936.0
945.0
959.0
970.0
987.0
1002.0
1010.0
1023.0
1033.0
1046.0
1054.0
1054.0
1058.0
1059.0
1062.0
1069.0
1077.0
1077.0
1074.0
1075.0
1081.0
1088.0
1093.0
1089.0
1086.0
1085.0
1092.0
1098.0
1100.0
1103.0
1101.0
1101.0
1105.0
1110.0
1112.0
1111.0
1113.0
1117.0
1119.0
1123.0
1127.0
1129.0
1130.0
1134.0
1138.0
1144.0
1152.0
1153.0
1155.0
1158.0
1163.0
1173.0
1181.0
1186.0
1191.0
1196.0
1204.0
1211.0
1220.0
1225.0
1230.0
1239.0
1249.0
1257.0
1260.0
1265.0
1269.0
1272.0
1283.0
1290.0
1294.0
1292.0
1294.0
1295.0
1294.0
1294.0
1291.0
1289.0
1281.0
1278.0
1274.0
1269.0
1259.0
1250.0
1236.0
1225.0
1217.0
1213.0
1201.0
1185.0
1171.0
1161.0
1153.0
1140.0
1127.0
1114.0
1107.0
1098.0
1092.0
1084.0
1077.0
1069.0
1061.0
1054.0
1057.0
1057.0
1057.0
1050.0
1045.0
1039.0
1036.0
1036.0
1037.0
1036.0
1037.0
1034.0
1032.0
1029.0
1030.0
1030.0
1027.0
1022.0
1022.0
1025.0
1029.0
1027.0
1024.0
1025.0
1023.0
1026.0
1025.0
1021.0
1017.0
1017.0
1021.0
1024.0
1022.0
1018.0
1015.0
1018.0
1021.0
1020.0
1019.0
1016.0
1014.0
1013.0
1017.0
1020.0
1020.0
1015.0
1012.0
1009.0
1013.0
1015.0
1017.0
1017.0
1010.0
1010.0
1011.0
1013.0
1010.0
1009.0
1008.0
1006.0
1010.0
1012.0
1014.0
1013.0
1007.0
1002.0
1004.0
1009.0
1010.0
1007.0
1005.0
1004.0
1004.0
1005.0
1006.0
1005.0
1002.0
1002.0
1006.0
1008.0
1006.0
1005.0
1003.0
999.0
1003.0
1003.0
1006.0
1004.0
1000.0
1002.0
1001.0
1004.0
1006.0
1005.0
999.0
1001.0
1003.0
1006.0
1004.0
1003.0
1001.0
1000.0
1002.0
1002.0
1005.0
1006.0
1005.0
1005.0
1003.0
1003.0
1001.0
1000.0
1000.0
999.0
1000.0
1005.0
1005.0
1006.0
1004.0
1002.0
1001.0
1003.0
1006.0
1006.0
1003.0
1001.0
1003.0
1004.0
1005.0
1004.0
1002.0
1001.0
1001.0
1006.0
1006.0
1004.0
1006.0
1004.0
1007.0
1004.0
1005.0
1006.0
1005.0
1005.0
1009.0
1010.0
1005.0
1003.0
1002.0
1004.0
1006.0
1011.0
1011.0
1008.0
1005.0
1004.0
1005.0
1008.0
1015.0
1011.0
1009.0
1006.0
1007.0
1008.0
1010.0
1011.0
1009.0
1011.0
1012.0
1011.0
1014.0
1010.0
1009.0
1010.0
1012.0
1012.0
1011.0
1010.0
1007.0
1011.0
1012.0
1013.0
1011.0
1012.0
1008.0
1010.0
1013.0
1015.0
1017.0
1014.0
1011.0
1007.0
1006.0
1009.0
1012.0
1010.0
1009.0
1008.0
1011.0
1015.0
1015.0
1013.0
1013.0
1013.0
1013.0
1015.0
1013.0
1011.0
1013.0
1011.0
1015.0
1016.0
1017.0
1016.0
1013.0
1011.0
1012.0
1016.0
1016.0
1016.0
1015.0
1014.0
1014.0
1016.0
1014.0
1010.0
1008.0
1004.0
1010.0
1013.0
1015.0
1012.0
1010.0
1006.0
1010.0
1011.0
1013.0
1010.0
1008.0
1007.0
1009.0
1013.0
1010.0
1008.0
1003.0
1005.0
1013.0
1016.0
1018.0
1015.0
1014.0
1012.0
1016.0
1019.0
1018.0
1019.0
1017.0
1019.0
1021.0
1023.0
1023.0
1022.0
1020.0
1017.0
1017.0
1018.0
1018.0
1017.0
1017.0
1022.0
1022.0
1024.0
1023.0
1021.0
1020.0
1019.0
1023.0
1022.0
1019.0
1019.0
1018.0
1013.0
1011.0
1009.0
1010.0
1012.0
1008.0
1009.0
1009.0
1010.0
1011.0
1009.0
1008.0
1005.0
1008.0
1008.0
1009.0
1006.0
1003.0
1003.0
1005.0
1005.0
1009.0
1005.0
1005.0
1000.0
1004.0
1006.0
1009.0
1008.0
1007.0
1008.0
1009.0
1018.0
1024.0
1026.0
1030.0
1039.0
1053.0
1072.0
1089.0
1109.0
1139.0
1180.0
1227.0
1273.0
1317.0
1355.0
1394.0
1437.0
1479.0
1511.0
1516.0
1486.0
1415.0
1316.0
1215.0
1142.0
1095.0
1064.0
1046.0
1034.0
1027.0
1021.0
1017.0
1010.0
1007.0
1000.0
996.0
994.0
987.0
980.0
976.0
975.0
977.0
979.0
976.0
970.0
966.0
967.0
967.0
970.0
972.0
969.0
967.0
962.0
962.0
965.0
966.0
966.0
965.0
965.0
961.0
965.0
963.0
963.0
960.0
958.0
959.0
961.0
963.0
964.0
960.0
959.0
960.0
962.0
961.0
957.0
953.0
951.0
955.0
958.0
961.0
959.0
961.0
958.0
959.0
963.0
962.0
960.0
957.0
958.0
957.0
959.0
959.0
959.0
958.0
957.0
961.0
962.0
963.0
964.0
963.0
963.0
965.0
967.0
969.0
968.0
967.0
974.0
978.0
982.0
983.0
982.0
982.0
990.0
997.0
1005.0
1008.0
1012.0
1011.0
1013.0
1022.0
1027.0
1034.0
1036.0
1035.0
1033.0
1038.0
1042.0
1044.0
1043.0
1039.0
1036.0
1040.0
1045.0
1042.0
1041.0
1038.0
1034.0
1033.0
1033.0
1032.0
1031.0
1026.0
1024.0
1026.0
1029.0
1027.0
1023.0
1018.0
1017.0
1020.0
1023.0
1023.0
1020.0
1021.0
1020.0
1022.0
1022.0
1021.0
1019.0
1021.0
1020.0
1017.0
1018.0
1017.0
1017.0
1015.0
1017.0
1020.0
1021.0
1017.0
1013.0
1013.0
1009.0
1012.0
1014.0
1014.0
1014.0
1011.0
1011.0
1017.0
1020.0
1018.0
1014.0
1009.0
1008.0
1009.0
1014.0
1015.0
1012.0
1007.0
1008.0
1006.0
1010.0
1011.0
1009.0
1004.0
1003.0
1007.0
1015.0
1012.0
1010.0
1005.0
1008.0
1012.0
1012.0
1010.0
1007.0
1001.0
1003.0
1006.0
1010.0
1010.0
1009.0
1007.0
1007.0
1007.0
1010.0
1011.0
1008.0
1004.0
1005.0
1009.0
1010.0
1011.0
1009.0
1006.0
1004.0
1007.0
1009.0
1005.0
1005.0
999.0
997.0
1000.0
1005.0
1005.0
1004.0
1002.0
1002.0
1003.0
1004.0
1000.0
1002.0
1001.0
1002.0
1003.0
1004.0
1004.0
1003.0
1003.0
1000.0
1003.0
1004.0
1009.0
1008.0
1003.0
1003.0
1005.0
1005.0
1004.0
1003.0
1004.0
1003.0
1006.0
1007.0
1005.0
999.0
999.0
1001.0
1003.0
1008.0
1009.0
1007.0
1002.0
997.0
998.0
1006.0
1008.0
1005.0
1004.0
1005.0
1007.0
1007.0
1008.0
1004.0
1003.0
1001.0
1004.0
1007.0
1006.0
1004.0
1000.0
1002.0
1004.0
1007.0
1008.0
1004.0
1004.0
1007.0
1013.0
1017.0
1016.0
1014.0
1013.0
1014.0
1018.0
1019.0
1019.0
1017.0
1013.0
1013.0
1016.0
1018.0
1015.0
1015.0
1012.0
1015.0
1017.0
1018.0
1018.0
1018.0
1020.0
1023.0
1023.0
1024.0
1024.0
1022.0
1016.0
1011.0
1015.0
1018.0
1016.0
1013.0
1009.0
1006.0
1006.0
1011.0
1011.0
1012.0
1011.0
1010.0
1011.0
1013.0
1014.0
1011.0
1008.0
1007.0
1010.0
1011.0
1011.0
1011.0
1008.0
1006.0
1011.0
1016.0
1015.0
1014.0
1014.0
1019.0
1027.0
1036.0
1046.0
1054.0
1071.0
1086.0
1111.0
1145.0
1183.0
1228.0
1271.0
1314.0
1351.0
1394.0
1433.0
1475.0
1503.0
1506.0
1479.0
1404.0
1296.0
1192.0
1120.0
1074.0
1053.0
1039.0
1031.0
1021.0
1016.0
1015.0
1013.0
1007.0
1001.0
993.0
987.0
986.0
986.0
988.0
987.0
983.0
979.0
977.0
980.0
983.0
984.0
981.0
976.0
974.0
975.0
976.0
978.0
976.0
972.0
973.0
975.0
973.0
974.0
972.0
969.0
968.0
967.0
970.0
969.0
968.0
965.0
967.0
971.0
969.0
