# Simple Text Format
# Sampling Rate (Hz):= 360.00
# Resolution:= 12
# Labels:= ECG
1046.0
1052.0
1050.0
1053.0
1048.0
1045.0
1045.0
1047.0
1048.0
1047.0
1045.0
1041.0
1043.0
1048.0
1047.0
1043.0
1039.0
1037.0
1035.0
1039.0
1043.0
1042.0
1039.0
1037.0
1035.0
1038.0
1041.0
1042.0
1038.0
1036.0
1036.0
1038.0
1040.0
1039.0
1040.0
1037.0
1039.0
1042.0
1042.0
1041.0
1037.0
1034.0
1037.0
1039.0
1041.0
1041.0
1038.0
1037.0
1037.0
1040.0
1040.0
1038.0
1035.0
1034.0
1035.0
1039.0
1042.0
1040.0
1038.0
1034.0
1034.0
1038.0
1036.0
1037.0
1035.0
1032.0
1033.0
1032.0
1036.0
1034.0
1033.0
1030.0
1031.0
1034.0
1039.0
1034.0
1031.0
1031.0
1030.0
1033.0
1036.0
1035.0
1031.0
1030.0
1030.0
1031.0
1035.0
1034.0
1030.0
1028.0
1027.0
1029.0
1031.0
1030.0
1028.0
1029.0
1030.0
1033.0
1034.0
1030.0
1030.0
1027.0
1028.0
1029.0
1030.0
1031.0
1029.0
1028.0
1030.0
1030.0
1033.0
1031.0
1030.0
1027.0
1029.0
1032.0
1035.0
1034.0
1031.0
1027.0
1029.0
1030.0
1032.0
1034.0
1031.0
1028.0
1028.0
1032.0
1035.0
1033.0
1031.0
1030.0
1029.0
1033.0
1036.0
1033.0
1033.0
1030.0
1032.0
1034.0
1034.0
1035.0
1033.0
1030.0
1034.0
1036.0
1038.0
1038.0
1037.0
1035.0
1039.0
1040.0
1044.0
1044.0
1040.0
1041.0
1043.0
1049.0
1051.0
1049.0
1047.0
1042.0
1043.0
1045.0
1049.0
1048.0
1045.0
1043.0
1043.0
1043.0
1048.0
1044.0
1043.0
1043.0
1047.0
1055.0
1061.0
1068.0
1081.0
1097.0
1125.0
1153.0
1173.0
1182.0
1173.0
1157.0
1130.0
1089.0
1031.0
958.0
871.0
781.0
705.0
668.0
657.0
639.0
627.0
624.0
635.0
655.0
686.0
718.0
751.0
787.0
817.0
842.0
864.0
877.0
888.0
900.0
914.0
928.0
941.0
949.0
954.0
961.0
974.0
988.0
996.0
1005.0
1011.0
1020.0
1031.0
1045.0
1055.0
1064.0
1067.0
1071.0
1072.0
1081.0
1089.0
1092.0
1089.0
1087.0
1091.0
1094.0
1100.0
1100.0
1100.0
1100.0
1100.0
1104.0
1108.0
1108.0
1110.0
1109.0
1113.0
1118.0
1122.0
1121.0
1118.0
1118.0
1120.0
1126.0
1129.0
1131.0
1128.0
1126.0
1131.0
1136.0
1139.0
1144.0
1140.0
1143.0
1145.0
1151.0
1155.0
1159.0
1158.0
1161.0
1164.0
1171.0
1177.0
1177.0
1179.0
1182.0
1190.0
1198.0
1207.0
1209.0
1208.0
1213.0
1218.0
1226.0
1235.0
1240.0
1242.0
1247.0
1251.0
1258.0
1265.0
1265.0
1268.0
1265.0
1269.0
1270.0
1275.0
1276.0
1271.0
1268.0
1267.0
1265.0
1265.0
1259.0
1253.0
1247.0
1242.0
1241.0
1235.0
1227.0
1215.0
1209.0
1205.0
1200.0
1195.0
1189.0
1179.0
1171.0
1162.0
1161.0
1155.0
1148.0
1141.0
1134.0
1130.0
1127.0
1124.0
1120.0
1115.0
1108.0
1104.0
1098.0
1095.0
1091.0
1089.0
1082.0
1083.0
1087.0
1089.0
1086.0
1082.0
1075.0
1072.0
1075.0
1077.0
1075.0
1073.0
1072.0
1072.0
1072.0
1071.0
1067.0
1065.0
1064.0
1068.0
1070.0
1073.0
1072.0
1066.0
1064.0
1065.0
1067.0
1068.0
1065.0
1062.0
1060.0
1061.0
1064.0
1071.0
1068.0
1062.0
1058.0
1060.0
1060.0
1065.0
1064.0
1063.0
1056.0
1052.0
1051.0
1054.0
1053.0
1053.0
1051.0
1053.0
1054.0
1057.0
1054.0
1052.0
1046.0
1050.0
1051.0
1054.0
1052.0
1051.0
1044.0
1046.0
1050.0
1049.0
1048.0
1044.0
1042.0
1041.0
1044.0
1044.0
1045.0
1045.0
1041.0
1041.0
1040.0
1042.0
1040.0
1037.0
1039.0
1041.0
1044.0
1046.0
1047.0
1042.0
1039.0
1040.0
1043.0
1043.0
1040.0
1038.0
1034.0
1039.0
1040.0
1041.0
1038.0
1036.0
1032.0
1036.0
1037.0
1040.0
1040.0
1045.0
1040.0
1039.0
1039.0
1042.0
1046.0
1045.0
1041.0
1036.0
1038.0
1044.0
1047.0
1050.0
1049.0
1049.0
1048.0
1042.0
1041.0
1041.0
1040.0
1040.0
1042.0
1046.0
1048.0
1047.0
1046.0
1047.0
1052.0
1049.0
1051.0
1049.0
1049.0
1048.0
1045.0
1045.0
1043.0
1044.0
1044.0
1045.0
1048.0
1050.0
1050.0
1046.0
1037.0
1038.0
1046.0
1051.0
1052.0
1052.0
1050.0
1046.0
1048.0
1048.0
1048.0
1047.0
1049.0
1050.0
1048.0
1047.0
1043.0
1040.0
1036.0
1039.0
1048.0
1049.0
1052.0
1044.0
1046.0
1049.0
1052.0
1053.0
1051.0
1050.0
1045.0
1046.0
1046.0
1045.0
1042.0
1042.0
1046.0
1048.0
1045.0
1041.0
1033.0
1030.0
1037.0
1041.0
1047.0
1051.0
1050.0
1046.0
1045.0
1045.0
1047.0
1046.0
1046.0
1048.0
1046.0
1050.0
1052.0
1055.0
1056.0
1053.0
1051.0
1050.0
1055.0
1056.0
1052.0
1046.0
1044.0
1048.0
1048.0
1052.0
1048.0
1043.0
1042.0
1044.0
1046.0
1053.0
1054.0
1052.0
1048.0
1048.0
1046.0
1048.0
1046.0
1046.0
1042.0
1039.0
1037.0
1036.0
1036.0
1034.0
1034.0
1034.0
1037.0
1041.0
1041.0
1036.0
1030.0
1028.0
1031.0
1037.0
1040.0
1038.0
1032.0
1035.0
1037.0
1040.0
1040.0
1037.0
1037.0
1038.0
1044.0
1047.0
1046.0
1045.0
1043.0
1051.0
1059.0
1068.0
1071.0
1077.0
1085.0
1101.0
1110.0
1126.0
1139.0
1169.0
1202.0
1241.0
1279.0
1314.0
1346.0
1379.0
1417.0
1461.0
1491.0
1499.0
1471.0
1395.0
1295.0
1201.0
1135.0
1097.0
1073.0
1059.0
1059.0
1063.0
1066.0
1063.0
1062.0
1055.0
1054.0
1048.0
1046.0
1045.0
1044.0
1038.0
1036.0
1039.0
1039.0
1036.0
1033.0
1031.0
1033.0
1032.0
1038.0
1037.0
1036.0
1032.0
1031.0
1031.0
1031.0
1033.0
1032.0
1028.0
1025.0
1024.0
1027.0
1031.0
1032.0
1028.0
1026.0
1024.0
1024.0
1026.0
1026.0
1026.0
1024.0
1022.0
1023.0
1026.0
1028.0
1027.0
1025.0
1028.0
1031.0
1030.0
1026.0
1022.0
1019.0
1023.0
1025.0
1027.0
1024.0
1019.0
1017.0
1020.0
1023.0
1028.0
1024.0
1021.0
1020.0
1021.0
1028.0
1028.0
1027.0
1026.0
1024.0
1024.0
1026.0
1027.0
1029.0
1028.0
1030.0
1032.0
1036.0
1040.0
1041.0
1042.0
1041.0
1043.0
1046.0
1049.0
1051.0
1053.0
1054.0
1060.0
1064.0
1069.0
1069.0
1071.0
1077.0
1083.0
1087.0
1090.0
1091.0
1089.0
1085.0
1090.0
1093.0
1092.0
1091.0
1086.0
1080.0
1080.0
1083.0
1080.0
1074.0
1068.0
1065.0
1064.0
1063.0
1063.0
1063.0
1060.0
1056.0
1058.0
1060.0
1060.0
1054.0
1050.0
1046.0
1047.0
1051.0
1055.0
1052.0
1049.0
1046.0
1049.0
1048.0
1046.0
1042.0
1040.0
1040.0
1041.0
1046.0
1047.0
1049.0
1044.0
1043.0
1043.0
1049.0
1051.0
1050.0
1045.0
1045.0
1041.0
1039.0
1036.0
1034.0
1032.0
1033.0
1037.0
1040.0
1040.0
1037.0
1032.0
1032.0
1031.0
1035.0
1036.0
1035.0
1035.0
1035.0
1035.0
1038.0
1039.0
1037.0
1029.0
1025.0
1028.0
1033.0
1036.0
1036.0
1031.0
1030.0
1032.0
1039.0
1042.0
1042.0
1036.0
1029.0
1026.0
1024.0
1026.0
1029.0
1032.0
1033.0
1032.0
1027.0
1027.0
1025.0
1021.0
1019.0
1020.0
1022.0
1028.0
1028.0
1022.0
1017.0
1018.0
1020.0
1020.0
1022.0
1024.0
1021.0
1023.0
1023.0
1024.0
1023.0
1019.0
1017.0
1016.0
1019.0
1019.0
1018.0
1014.0
1014.0
1016.0
1015.0
1016.0
1018.0
1016.0
1013.0
1013.0
1014.0
1016.0
1016.0
1012.0
1010.0
1012.0
1016.0
1019.0
1023.0
1028.0
1029.0
1021.0
1012.0
1009.0
1004.0
999.0
998.0
994.0
995.0
996.0
997.0
995.0
998.0
999.0
998.0
1003.0
1004.0
1002.0
999.0
997.0
994.0
997.0
999.0
1003.0
1006.0
1010.0
1017.0
1024.0
1020.0
1016.0
1011.0
1014.0
1019.0
1022.0
1029.0
1026.0
1026.0
1027.0
1028.0
1029.0
1028.0
1033.0
1033.0
1036.0
1038.0
1037.0
1036.0
1034.0
1039.0
1043.0
1047.0
1045.0
1045.0
1039.0
1036.0
1038.0
1041.0
1041.0
1037.0
1031.0
1030.0
1029.0
1030.0
1034.0
1034.0
1033.0
1031.0
1033.0
1042.0
1048.0
1043.0
1036.0
1035.0
1038.0
1039.0
1038.0
1037.0
1031.0
1029.0
1028.0
1030.0
1029.0
1027.0
1021.0
1020.0
1021.0
1023.0
1020.0
1017.0
1015.0
1011.0
1011.0
1009.0
1008.0
1008.0
1010.0
1007.0
1006.0
1006.0
1010.0
1010.0
1008.0
1008.0
1011.0
1015.0
1017.0
1012.0
1009.0
1008.0
1014.0
1026.0
1037.0
1038.0
1044.0
1053.0
1063.0
1072.0
1095.0
1125.0
1161.0
1192.0
1226.0
1259.0
1291.0
1322.0
1361.0
1406.0
1446.0
1457.0
1419.0
1325.0
1201.0
1104.0
1052.0
1036.0
1035.0
1036.0
1030.0
1022.0
1018.0
1018.0
1018.0
1014.0
1009.0
1008.0
1007.0
1014.0
1015.0
1013.0
1003.0
999.0
1002.0
1007.0
1008.0
1005.0
999.0
994.0
993.0
997.0
1004.0
1000.0
993.0
986.0
991.0
995.0
999.0
998.0
991.0
986.0
986.0
990.0
997.0
1000.0
995.0
988.0
988.0
993.0
996.0
996.0
997.0
992.0
999.0
1002.0
1007.0
1003.0
999.0
1004.0
1008.0
1008.0
1014.0
1016.0
1017.0
1017.0
1018.0
1020.0
1019.0
1022.0
1024.0
1026.0
1031.0
1036.0
1041.0
1037.0
1034.0
1032.0
1034.0
1041.0
1047.0
1055.0
1054.0
1055.0
1053.0
1054.0
1058.0
1064.0
1066.0
1073.0
1078.0
1083.0
1085.0
1081.0
1078.0
1082.0
1084.0
1084.0
1085.0
1087.0
1086.0
1081.0
1084.0
1078.0
1072.0
1068.0
1065.0
1068.0
1067.0
1064.0
1062.0
1059.0
1057.0
1056.0
1057.0
1059.0
1060.0
1062.0
1060.0
1055.0
1051.0
1050.0
1056.0
1057.0
1055.0
1056.0
1060.0
1063.0
1062.0
1056.0
1050.0
1049.0
1050.0
1052.0
1051.0
1049.0
1045.0
1046.0
1049.0
1050.0
1050.0
1046.0
1043.0
1043.0
1048.0
1045.0
1046.0
1044.0
1038.0
1037.0
1041.0
1047.0
1050.0
1047.0
1044.0
1042.0
1043.0
1047.0
1046.0
1047.0
1043.0
1044.0
1044.0
1042.0
1045.0
1045.0
1043.0
1044.0
1045.0
1047.0
1045.0
1043.0
1039.0
1037.0
1037.0
1038.0
1038.0
1036.0
1038.0
1043.0
1045.0
1045.0
1040.0
1039.0
1036.0
1040.0
1043.0
1044.0
1046.0
1044.0
1042.0
1042.0
1044.0
1045.0
1046.0
1038.0
1039.0
1037.0
1037.0
1041.0
1042.0
1038.0
1037.0
1033.0
1037.0
1041.0
1043.0
1044.0
1042.0
1036.0
1036.0
1037.0
1040.0
1042.0
1039.0
1040.0
1042.0
1044.0
1042.0
1039.0
1033.0
1031.0
1034.0
1040.0
1041.0
1037.0
1029.0
1027.0
1031.0
1036.0
1038.0
1035.0
1031.0
1031.0
1032.0
1034.0
1037.0
1036.0
1032.0
1036.0
1035.0
1036.0
1041.0
1039.0
1035.0
1032.0
1033.0
1035.0
1037.0
1036.0
1032.0
1029.0
1034.0
1036.0
1039.0
1037.0
1032.0
1033.0
1035.0
1038.0
1043.0
1042.0
1041.0
1037.0
1033.0
1034.0
1039.0
1041.0
1041.0
1039.0
1041.0
1043.0
1044.0
1042.0
1039.0
1039.0
1040.0
1044.0
1040.0
1039.0
1035.0
1037.0
1038.0
1045.0
1047.0
1045.0
1044.0
1042.0
1045.0
1049.0
1047.0
1042.0
1041.0
1041.0
1046.0
1049.0
1052.0
1051.0
1047.0
1048.0
1048.0
1049.0
1047.0
1042.0
1038.0
1039.0
1040.0
1037.0
1036.0
1035.0
1037.0
1041.0
1046.0
1047.0
1046.0
1044.0
1041.0
1040.0
1040.0
1044.0
1041.0
1033.0
1028.0
1028.0
1032.0
1036.0
1039.0
1035.0
1032.0
1030.0
1031.0
1034.0
1032.0
1031.0
1027.0
1029.0
1028.0
1033.0
1033.0
1030.0
1025.0
1025.0
1027.0
1031.0
1031.0
1031.0
1030.0
1030.0
1030.0
1032.0
1036.0
1038.0
1038.0
1043.0
1046.0
1051.0
1061.0
1070.0
1081.0
1092.0
1110.0
1134.0
1167.0
1200.0
1234.0
1265.0
1298.0
1331.0
1360.0
1399.0
1437.0
1467.0
1481.0
1465.0
1414.0
1329.0
1234.0
1149.0
1093.0
1061.0
1041.0
1030.0
1030.0
1031.0
1035.0
1036.0
1035.0
1029.0
1024.0
1018.0
1015.0
1013.0
1011.0
1011.0
1011.0
1008.0
1009.0
1010.0
1009.0
1008.0
1006.0
1007.0
1009.0
1009.0
1010.0
1007.0
1006.0
1004.0
1006.0
1008.0
1007.0
1002.0
999.0
999.0
1001.0
1003.0
1004.0
1003.0
1003.0
1001.0
1001.0
1005.0
1007.0
1006.0
1002.0
1004.0
1006.0
1008.0
1009.0
1007.0
1004.0
1002.0
1002.0
1004.0
1007.0
1002.0
1001.0
1004.0
1004.0
1008.0
1009.0
1008.0
1002.0
1003.0
1006.0
1010.0
1014.0
1011.0
1009.0
1006.0
1008.0
1009.0
1010.0
1009.0
1011.0
1009.0
1011.0
1015.0
1014.0
1015.0
1013.0
1014.0
1017.0
1021.0
1027.0
1025.0
1022.0
1023.0
1028.0
1035.0
1038.0
1038.0
1037.0
1040.0
1043.0
1050.0
1053.0
1054.0
1056.0
1059.0
1066.0
1072.0
1074.0
1074.0
1075.0
1076.0
1077.0
1080.0
1083.0
1082.0
1079.0
1075.0
1077.0
1078.0
1080.0
1078.0
1073.0
1069.0
1067.0
1067.0
1066.0
1061.0
1055.0
1052.0
1053.0
1051.0
1051.0
1049.0
1047.0
1048.0
1047.0
1048.0
1044.0
1045.0
1043.0
1041.0
1044.0
1044.0
1043.0
1043.0
1037.0
1038.0
1040.0
1044.0
1043.0
1039.0
1033.0
1031.0
1034.0
1037.0
1039.0
1036.0
1037.0
1033.0
1038.0
1039.0
1041.0
1037.0
1032.0
1031.0
1031.0
1036.0
1037.0
1034.0
1032.0
1028.0
1029.0
1032.0
1033.0
1032.0
1032.0
1030.0
1032.0
1034.0
1032.0
1028.0
1029.0
1028.0
1029.0
1032.0
1032.0
1028.0
1029.0
1030.0
1034.0
1032.0
1033.0
1029.0
1027.0
1029.0
1031.0
1032.0
1033.0
1030.0
1027.0
1030.0
1030.0
1036.0
1034.0
1029.0
1029.0
1027.0
1027.0
1030.0
1031.0
1026.0
1028.0
1026.0
1028.0
1030.0
1028.0
1026.0
1025.0
1026.0
1027.0
1027.0
1028.0
1028.0
1027.0
1024.0
1024.0
1027.0
1029.0
1026.0
1022.0
1022.0
1026.0
1030.0
1030.0
1027.0
1025.0
1026.0
1027.0
1031.0
1029.0
1028.0
1026.0
1028.0
1030.0
1031.0
1030.0
1024.0
1022.0
1022.0
1025.0
1027.0
1031.0
1030.0
1028.0
1026.0
1025.0
1027.0
1027.0
1024.0
1023.0
1022.0
1023.0
1026.0
1029.0
1027.0
1026.0
1021.0
1025.0
1027.0
1027.0
1029.0
1027.0
1026.0
1027.0
1026.0
1024.0
1023.0
1021.0
1021.0
1021.0
1024.0
1024.0
1023.0
1021.0
1023.0
1025.0
1027.0
1030.0
1028.0
1021.0
1021.0
1022.0
1028.0
1028.0
1029.0
1027.0
1027.0
1028.0
1031.0
1027.0
1023.0
1021.0
1021.0
1024.0
1031.0
1033.0
1032.0
1029.0
1030.0
1034.0
1037.0
1038.0
1036.0
1035.0
1035.0
1036.0
1037.0
1040.0
1036.0
1030.0
1034.0
1032.0
1039.0
1038.0
1034.0
1034.0
1034.0
1039.0
1039.0
1038.0
1035.0
1033.0
1034.0
1038.0
1044.0
1045.0
1039.0
1034.0
1029.0
1029.0
1030.0
1031.0
1027.0
1029.0
1025.0
1027.0
1030.0
1031.0
1030.0
1028.0
1026.0
1031.0
1031.0
1029.0
1025.0
1023.0
1024.0
1026.0
1029.0
1028.0
1028.0
1028.0
1025.0
1027.0
1031.0
1029.0
1030.0
1027.0
1026.0
1027.0
1031.0
1033.0
1029.0
1031.0
1034.0
1038.0
1044.0
1048.0
1047.0
1053.0
1065.0
1080.0
1094.0
1108.0
1124.0
1150.0
1180.0
1217.0
1253.0
1282.0
1311.0
1342.0
1378.0
1421.0
1456.0
1463.0
1439.0
1381.0
1292.0
1200.0
1134.0
1089.0
1055.0
1033.0
1025.0
1026.0
1029.0
1027.0
1022.0
1022.0
1020.0
1019.0
1019.0
1017.0
1010.0
1005.0
1004.0
1008.0
1011.0
1009.0
1007.0
1002.0
1001.0
1001.0
1002.0
1001.0
1004.0
1003.0
1003.0
1007.0
1007.0
1005.0
1001.0
998.0
1001.0
1003.0
1006.0
1004.0
1001.0
1000.0
998.0
1000.0
1004.0
1002.0
1002.0
999.0
1000.0
1000.0
1000.0
998.0
999.0
997.0
997.0
1000.0
1003.0
999.0
998.0
994.0
996.0
1000.0
1000.0
1001.0
996.0
995.0
995.0
1000.0
1005.0
1005.0
1001.0
999.0
1000.0
1000.0
1004.0
1007.0
1004.0
1001.0
1005.0
1007.0
1012.0
1012.0
1010.0
1008.0
1008.0
1014.0
1017.0
1020.0
1020.0
1017.0
1021.0
1024.0
1032.0
1030.0
1031.0
1033.0
1040.0
1044.0
1049.0
1053.0
1054.0
1057.0
1060.0
1064.0
1067.0
1069.0
1069.0
1070.0
1072.0
1073.0
1074.0
1073.0
1072.0
1070.0
1066.0
1064.0
1068.0
1064.0
1060.0
1053.0
1055.0
1056.0
1056.0
1052.0
1051.0
1049.0
1046.0
1045.0
1049.0
1047.0
1046.0
1041.0
1040.0
1043.0
1044.0
1045.0
1046.0
1044.0
1041.0
1043.0
1043.0
1046.0
1043.0
1042.0
1039.0
1042.0
1040.0
1039.0
1035.0
1032.0
1034.0
1035.0
1040.0
1040.0
1041.0
1035.0
1033.0
1033.0
1033.0
1033.0
1034.0
1033.0
1034.0
1038.0
1037.0
1039.0
1035.0
1034.0
1031.0
1033.0
1035.0
1035.0
1034.0
1032.0
1031.0
1034.0
1035.0
1034.0
1034.0
1033.0
1032.0
1035.0
1036.0
1036.0
1034.0
1032.0
1033.0
1036.0
1036.0
1035.0
1033.0
1033.0
1030.0
1034.0
1036.0
1036.0
1034.0
1033.0
1032.0
1033.0
1038.0
1037.0
1034.0
1033.0
1030.0
1034.0
1035.0
1035.0
1035.0
1031.0
1035.0
1034.0
1032.0
1029.0
1029.0
1028.0
1029.0
1031.0
1034.0
1034.0
1031.0
1028.0
1025.0
1029.0
1034.0
1035.0
1032.0
1026.0
1026.0
1026.0
1030.0
1031.0
1030.0
1029.0
1029.0
1030.0
1034.0
1031.0
1029.0
1027.0
1027.0
1027.0
1032.0
1028.0
1025.0
1024.0
1025.0
1028.0
1030.0
1031.0
1031.0
1032.0
1029.0
1026.0
1026.0
1024.0
1027.0
1025.0
1025.0
1029.0
1033.0
1033.0
1030.0
1024.0
1024.0
1029.0
1029.0
1030.0
1029.0
1025.0
1027.0
1030.0
1031.0
1030.0
1027.0
1024.0
1024.0
1027.0
1032.0
1032.0
1029.0
1024.0
1024.0
1028.0
1031.0
1030.0
1030.0
1028.0
1028.0
1029.0
1031.0
1027.0
1028.0
1024.0
1024.0
1024.0
1030.0
1032.0
1030.0
1026.0
1026.0
1030.0
1036.0
1039.0
1035.0
1035.0
1039.0
1041.0
1044.0
1042.0
1040.0
1038.0
1039.0
1042.0
1045.0
1044.0
1041.0
1038.0
1038.0
1039.0
1037.0
1036.0
1034.0
1034.0
1035.0
1037.0
1040.0
1040.0
1039.0
1038.0
1037.0
1038.0
1040.0
1039.0
1036.0
1032.0
1029.0
1031.0
1032.0
1030.0
1030.0
1029.0
1030.0
1031.0
1033.0
1033.0
1029.0
1028.0
1028.0
1034.0
1035.0
1035.0
1033.0
1030.0
1028.0
1032.0
1033.0
1035.0
1033.0
1031.0
1031.0
1032.0
1035.0
1036.0
1037.0
1037.0
1042.0
1053.0
1063.0
1072.0
1081.0
1091.0
1101.0
1118.0
1140.0
1172.0
1209.0
1244.0
1280.0
1317.0
1352.0
1394.0
1436.0
1468.0
1481.0
1459.0
1396.0
1297.0
1198.0
1116.0
1067.0
1043.0
1033.0
1036.0
1037.0
1032.0
1031.0
1033.0
1029.0
1024.0
1017.0
1009.0
1008.0
1016.0
1017.0
1017.0
1013.0
1008.0
1007.0
1004.0
1008.0
1009.0
1011.0
1006.0
1005.0
1009.0
1010.0
1007.0
1008.0
1004.0
1008.0
1009.0
1015.0
1012.0
1009.0
1006.0
1007.0
1010.0
1013.0
1012.0
1011.0
1007.0
1008.0
1010.0
1013.0
1015.0
1012.0
1010.0
1011.0
1014.0
1016.0
1016.0
1016.0
1013.0
1014.0
1016.0
1018.0
1016.0
1016.0
1015.0
1015.0
1020.0
1024.0
1024.0
1019.0
1018.0
1020.0
1023.0
1027.0
1025.0
1024.0
1023.0
1024.0
1029.0
1033.0
1032.0
1031.0
1029.0
1028.0
1032.0
1035.0
1036.0
1037.0
1038.0
1038.0
1044.0
1045.0
1049.0
1050.0
1051.0
1054.0
1061.0
1068.0
1071.0
1073.0
1074.0
1076.0
1081.0
1086.0
1090.0
1091.0
1091.0
1096.0
1101.0
1102.0
1100.0
1101.0
1095.0
1094.0
1096.0
1098.0
1095.0
1090.0
1084.0
1080.0
1081.0
1079.0
1078.0
1075.0
1072.0
1066.0
1067.0
1067.0
1065.0
1062.0
1058.0
1058.0
1062.0
1062.0
1060.0
1058.0
1051.0
1052.0
1052.0
1055.0
1054.0
1053.0
1050.0
1051.0
1052.0
1055.0
1053.0
1050.0
1048.0
1047.0
1049.0
1052.0
1052.0
1047.0
1047.0
1046.0
1047.0
1052.0
1050.0
1049.0
1046.0
1044.0
1047.0
1046.0
1045.0
1043.0
1041.0
1042.0
1043.0
1045.0
1045.0
1043.0
1040.0
1041.0
1040.0
1042.0
1042.0
1043.0
1042.0
1041.0
1038.0
1038.0
1037.0
1037.0
1039.0
1039.0
1039.0
1042.0
1037.0
1037.0
1032.0
1031.0
1036.0
1036.0
1036.0
1037.0
1036.0
1034.0
1037.0
1041.0
1041.0
1037.0
1035.0
1034.0
1035.0
1037.0
1037.0
1034.0
1033.0
1033.0
1036.0
1040.0
1039.0
1036.0
1035.0
1034.0
1038.0
1039.0
1037.0
1037.0
1034.0
1033.0
1033.0
1036.0
1036.0
1035.0
1032.0
1032.0
1033.0
1036.0
1035.0
1034.0
1030.0
1030.0
1032.0
1035.0
1036.0
1037.0
1034.0
1033.0
1032.0
1034.0
1035.0
1032.0
1031.0
1034.0
1033.0
1036.0
1035.0
1037.0
1036.0
1041.0
1041.0
1044.0
1042.0
1039.0
1036.0
1037.0
1041.0
1046.0
1046.0
1042.0
1041.0
1043.0
1047.0
1049.0
1045.0
1041.0
1041.0
1043.0
1050.0
1053.0
1051.0
1051.0
1046.0
1046.0
1046.0
1047.0
1048.0
1045.0
1043.0
1042.0
1045.0
1048.0
1046.0
1046.0
1045.0
1044.0
1050.0
1053.0
1054.0
1051.0
1047.0
1045.0
1049.0
1051.0
1055.0
1052.0
1048.0
1043.0
1039.0
1039.0
1040.0
1041.0
1040.0
1044.0
1048.0
1054.0
1056.0
1058.0
1057.0
1057.0
1059.0
1063.0
1062.0
1062.0
1061.0
1066.0
1066.0
1069.0
1068.0
1066.0
1063.0
1066.0
1068.0
1067.0
1061.0
1054.0
1051.0
1048.0
1051.0
1051.0
1054.0
1051.0
1052.0
1057.0
1056.0
1059.0
1056.0
1051.0
1047.0
1047.0
1045.0
1046.0
1045.0
1051.0
1046.0
1044.0
1046.0
1048.0
1051.0
1047.0
1048.0
1047.0
1051.0
1054.0
1054.0
1053.0
1048.0
1054.0
1056.0
1063.0
1062.0
1065.0
1068.0
1075.0
1089.0
1105.0
1115.0
1126.0
1136.0
1158.0
1187.0
1221.0
1251.0
1282.0
1305.0
1332.0
1368.0
1406.0
1439.0
1454.0
1447.0
1411.0
1341.0
1259.0
1177.0
1113.0
1077.0
1057.0
1055.0
1057.0
1054.0
1049.0
1050.0
1048.0
1048.0
1048.0
1043.0
1039.0
1034.0
1034.0
1037.0
1036.0
1036.0
1031.0
1027.0
1027.0
1030.0
1033.0
1033.0
1031.0
1029.0
1029.0
1031.0
1030.0
1027.0
1025.0
1023.0
1022.0
1026.0
1029.0
1027.0
1027.0
1025.0
1027.0
1030.0
1031.0
1033.0
1030.0
1024.0
1024.0
1027.0
1030.0
1030.0
1028.0
1024.0
1022.0
1022.0
1021.0
1020.0
1019.0
1020.0
1019.0
1022.0
1024.0
1023.0
1019.0
1019.0
1018.0
1019.0
1020.0
1020.0
1018.0
1017.0
1020.0
1023.0
1022.0
1021.0
1019.0
1014.0
1014.0
1021.0
1023.0
1024.0
1021.0
1020.0
1024.0
1031.0
1034.0
1034.0
1034.0
1035.0
1039.0
1043.0
1048.0
1050.0
1051.0
1053.0
1058.0
1063.0
1070.0
1068.0
1068.0
1067.0
1077.0
1081.0
1083.0
1080.0
1078.0
1081.0
1083.0
1086.0
1089.0
1085.0
1085.0
1079.0
1079.0
1078.0
1079.0
1075.0
1070.0
1066.0
1064.0
1066.0
1068.0
1064.0
1061.0
1055.0
1049.0
1050.0
1053.0
1052.0
1045.0
1044.0
1044.0
1048.0
1050.0
1047.0
1044.0
1044.0
1043.0
1049.0
1047.0
1050.0
1049.0
1044.0
1044.0
1046.0
1046.0
1046.0
1043.0
1040.0
1041.0
1039.0
1045.0
1043.0
1040.0
1037.0
1041.0
1044.0
1045.0
1045.0
1041.0
1039.0
1040.0
1043.0
1046.0
1045.0
1040.0
1042.0
1042.0
1044.0
1051.0
1047.0
1045.0
1043.0
1043.0
1046.0
1048.0
1047.0
1044.0
1042.0
1044.0
1048.0
1051.0
1050.0
1046.0
1045.0
1044.0
1048.0
1051.0
1050.0
1050.0
1046.0
1043.0
1044.0
1045.0
1045.0
1043.0
1044.0
1042.0
1046.0
1047.0
1047.0
1043.0
1041.0
1041.0
1045.0
1048.0
1046.0
1043.0
1040.0
1040.0
1043.0
1047.0
1045.0
1040.0
1040.0
1041.0
1043.0
1047.0
1045.0
1042.0
1039.0
1041.0
1044.0
1046.0
1045.0
1041.0
1038.0
1041.0
1044.0
1046.0
1044.0
1042.0
1040.0
1041.0
1044.0
1048.0
1047.0
1043.0
1040.0
1040.0
1044.0
1046.0
1044.0
1043.0
1040.0
1043.0
1045.0
1048.0
1045.0
1044.0
1041.0
1042.0
1047.0
1049.0
1047.0
1044.0
1042.0
1042.0
1047.0
1048.0
1049.0
1044.0
1040.0
1041.0
1046.0
1050.0
1045.0
1045.0
1042.0
1042.0
1045.0
1046.0
1044.0
1045.0
1040.0
1043.0
1045.0
1046.0
1046.0
1044.0
1040.0
1042.0
1042.0
1047.0
1046.0
1046.0
1044.0
1044.0
1050.0
1052.0
1054.0
1049.0
1050.0
1051.0
1057.0
1057.0
1056.0
1054.0
1052.0
1055.0
1054.0
1054.0
1053.0
1049.0
1047.0
1048.0
1051.0
1054.0
1053.0
1050.0
1049.0
1050.0
1055.0
1058.0
1060.0
1054.0
1050.0
1052.0
1048.0
1048.0
1046.0
1043.0
1043.0
1045.0
1046.0
1047.0
1047.0
1043.0
1041.0
1042.0
1045.0
1049.0
1046.0
1046.0
1041.0
1044.0
1046.0
1046.0
1045.0
1044.0
1041.0
1044.0
1044.0
1047.0
1045.0
1042.0
1044.0
1042.0
1047.0
1050.0
1047.0
1047.0
1054.0
1059.0
1068.0
1079.0
1089.0
1098.0
1108.0
1119.0
1143.0
1174.0
1204.0
1236.0
1263.0
1294.0
1327.0
1362.0
1406.0
1444.0
1470.0
1475.0
1451.0
1386.0
1295.0
1206.0
1139.0
1092.0
1062.0
1045.0
1037.0
1038.0
1038.0
1038.0
1040.0
1040.0
1036.0
1034.0
1025.0
1024.0
1028.0
1027.0
1026.0
1022.0
1020.0
1021.0
1023.0
1023.0
1020.0
1018.0
1017.0
1015.0
1019.0
1019.0
1019.0
1017.0
1016.0
1019.0
1021.0
1020.0
1019.0
1014.0
1015.0
1016.0
1020.0
1021.0
1020.0
1017.0
1012.0
1017.0
1021.0
1022.0
1021.0
1017.0
1014.0
1014.0
1015.0
1017.0
1015.0
1015.0
1010.0
1014.0
1015.0
1016.0
1016.0
1014.0
1013.0
1016.0
1019.0
1021.0
1019.0
1017.0
1016.0
1014.0
1018.0
1022.0
1022.0
1018.0
1015.0
1016.0
1019.0
1022.0
1020.0
1018.0
1016.0
1020.0
1025.0
1032.0
1031.0
1030.0
1027.0
1030.0
1035.0
1041.0
1043.0
1044.0
1042.0
1048.0
1051.0
1056.0
1059.0
1059.0
1061.0
1068.0
1074.0
1081.0
1083.0
1083.0
1082.0
1084.0
1088.0
1092.0
1090.0
1088.0
1086.0
1086.0
1089.0
1088.0
1082.0
1078.0
1077.0
1078.0
1076.0
1078.0
1074.0
1067.0
1059.0
1057.0
1061.0
1059.0
1054.0
1050.0
1046.0
1047.0
1048.0
1049.0
1049.0
1047.0
1044.0
1045.0
1045.0
1049.0
1046.0
1046.0
1045.0
1047.0
1049.0
1049.0
1049.0
1043.0
1042.0
1042.0
1045.0
1047.0
1046.0
1043.0
1042.0
1038.0
1039.0
1041.0
1042.0
1039.0
1036.0
1039.0
1042.0
1042.0
1038.0
1036.0
1034.0
1035.0
1039.0
1041.0
1041.0
1035.0
1034.0
1038.0
1040.0
1041.0
1041.0
1038.0
1035.0
1037.0
1041.0
1043.0
1039.0
1036.0
1036.0
1039.0
1041.0
1043.0
1040.0
1039.0
1036.0
1039.0
1041.0
1043.0
1043.0
1042.0
1039.0
1040.0
1040.0
1042.0
1041.0
1040.0
1039.0
1040.0
1040.0
1043.0
1041.0
1038.0
1035.0
1036.0
1040.0
1040.0
1041.0
1036.0
1035.0
1035.0
1037.0
1036.0
1037.0
1035.0
1033.0
1032.0
1035.0
1039.0
1037.0
1033.0
1032.0
1033.0
1036.0
1039.0
1038.0
1035.0
1033.0
1033.0
1034.0
1038.0
1037.0
1033.0
1031.0
1034.0
1035.0
1037.0
1035.0
1031.0
1031.0
1034.0
1036.0
1037.0
1032.0
1029.0
1026.0
1031.0
1039.0
1039.0
1035.0
1030.0
1033.0
1033.0
1034.0
1037.0
1036.0
1034.0
1033.0
1032.0
1032.0
1036.0
1037.0
1035.0
1031.0
1032.0
1035.0
1036.0
1036.0
1035.0
1032.0
1034.0
1036.0
1039.0
1038.0
1036.0
1034.0
1035.0
1036.0
1038.0
1035.0
1031.0
1033.0
1034.0
1037.0
1040.0
1039.0
1037.0
1036.0
1038.0
1042.0
1044.0
1041.0
1039.0
1039.0
1041.0
1043.0
1045.0
1051.0
1046.0
1042.0
1041.0
1043.0
1043.0
1040.0
1038.0
1036.0
1039.0
1040.0
1043.0
1045.0
1044.0
1043.0
1044.0
1047.0
1047.0
1043.0
1041.0
1037.0
1039.0
1037.0
1038.0
1035.0
1032.0
1031.0
1032.0
1039.0
1040.0
1037.0
1034.0
1030.0
1033.0
1036.0
1037.0
1036.0
1029.0
1029.0
1032.0
1034.0
1038.0
1036.0
1033.0
1028.0
1030.0
1031.0
1036.0
1034.0
1033.0
1031.0
1034.0
1036.0
1039.0
1043.0
1042.0
1043.0
1048.0
1057.0
1065.0
1077.0
1084.0
1091.0
1105.0
1128.0
1161.0
1188.0
1214.0
1239.0
1264.0
1292.0
1327.0
1362.0
1395.0
1418.0
1423.0
1395.0
1337.0
1244.0
1157.0
1095.0
1058.0
1038.0
1032.0
1029.0
1029.0
1028.0
1028.0
1031.0
1033.0
1031.0
1025.0
1019.0
1018.0
1019.0
1018.0
1015.0
1012.0
1010.0
1013.0
1016.0
1018.0
1017.0
1012.0
1013.0
1011.0
1015.0
1015.0
1013.0
1009.0
1012.0
1012.0
1014.0
1014.0
1009.0
1008.0
1007.0
1007.0
1009.0
1011.0
1008.0
1010.0
1007.0
1005.0
1007.0
1011.0
1007.0
1004.0
1003.0
1005.0
1005.0
1008.0
1005.0
1001.0
1003.0
1005.0
1004.0
1005.0
1005.0
1004.0
1003.0
1004.0
1006.0
1009.0
1008.0
1006.0
1005.0
1006.0
1009.0
1009.0
1007.0
1005.0
1003.0
1008.0
1013.0
1012.0
1009.0
1009.0
1008.0
1011.0
1011.0
1017.0
1017.0
1016.0
1014.0
1017.0
1018.0
1022.0
1023.0
1022.0
1022.0
1026.0
1033.0
1035.0
1034.0
1035.0
1034.0
1038.0
1049.0
1051.0
1053.0
1054.0
1056.0
1060.0
1065.0
1069.0
1070.0
1069.0
1069.0
1073.0
1076.0
1076.0
1072.0
1069.0
1067.0
1068.0
1069.0
1071.0
1066.0
1064.0
1058.0
1056.0
1058.0
1058.0
1053.0
1050.0
1047.0
1046.0
1048.0
1047.0
1045.0
1042.0
1036.0
1034.0
1037.0
1039.0
1038.0
1034.0
1031.0
1035.0
1035.0
1037.0
1035.0
1032.0
1032.0
1033.0
1036.0
1035.0
1037.0
1034.0
1033.0
1031.0
1036.0
1035.0
1035.0
1031.0
1028.0
1029.0
1030.0
1032.0
1029.0
1029.0
1028.0
1029.0
1031.0
1030.0
1028.0
1025.0
1023.0
1023.0
1029.0
1029.0
1028.0
1026.0
1022.0
1024.0
1027.0
1027.0
1027.0
1024.0
1022.0
1024.0
1025.0
1029.0
1025.0
1025.0
1022.0
1023.0
1026.0
1029.0
1027.0
1025.0
1023.0
1024.0
1026.0
1028.0
1028.0
1025.0
1022.0
1023.0
1024.0
1027.0
1024.0
1021.0
1023.0
1023.0
1026.0
1027.0
1027.0
1023.0
1020.0
1022.0
1025.0
1028.0
1025.0
1022.0
1021.0
1021.0
1026.0
1026.0
1023.0
1019.0
1019.0
1019.0
1022.0
1024.0
1021.0
1018.0
1019.0
1019.0
1022.0
1026.0
1022.0
1021.0
1019.0
1019.0
1023.0
1024.0
1024.0
1018.0
1017.0
1019.0
1022.0
1023.0
1020.0
1016.0
1015.0
1016.0
1018.0
1022.0
1022.0
1015.0
1018.0
1019.0
1020.0
1024.0
1022.0
1019.0
1018.0
1019.0
1023.0
1023.0
1022.0
1020.0
1016.0
1021.0
1022.0
1024.0
1020.0
1018.0
1018.0
1018.0
1020.0
1022.0
1020.0
1018.0
1018.0
1018.0
1020.0
1022.0
1020.0
1018.0
1018.0
1019.0
1022.0
1024.0
1022.0
1018.0
1016.0
1021.0
1020.0
1023.0
1022.0
1020.0
1019.0
1018.0
1022.0
1023.0
1022.0
1020.0
1020.0
1019.0
1026.0
1024.0
1025.0
1022.0
1024.0
1025.0
1029.0
1031.0
1031.0
1029.0
1026.0
1028.0
