# Simple Text Format
# Sampling Rate (Hz):= 360.00
# Resolution:= 12
# Labels:= ECG
1003.0
1001.0
1003.0
1007.0
1007.0
999.0
996.0
997.0
1002.0
1006.0
1009.0
1002.0
998.0
1000.0
1003.0
1006.0
1008.0
1005.0
1004.0
1002.0
1004.0
1005.0
1006.0
1005.0
1001.0
1004.0
1006.0
1007.0
1007.0
1003.0
1003.0
1001.0
1002.0
1006.0
1010.0
1007.0
1003.0
1001.0
1003.0
1005.0
1006.0
1006.0
1001.0
1002.0
1006.0
1007.0
1004.0
1001.0
1003.0
1006.0
1007.0
1008.0
1011.0
1012.0
1007.0
1007.0
1012.0
1013.0
1017.0
1014.0
1015.0
1017.0
1021.0
1023.0
1023.0
1019.0
1015.0
1010.0
1014.0
1015.0
1015.0
1015.0
1013.0
1012.0
1015.0
1020.0
1018.0
1020.0
1016.0
1018.0
1021.0
1019.0
1017.0
1009.0
1007.0
1006.0
1007.0
1011.0
1013.0
1012.0
1008.0
1008.0
1005.0
1010.0
1007.0
1006.0
1006.0
1004.0
1007.0
1010.0
1011.0
1006.0
1005.0
1004.0
1007.0
1006.0
1008.0
1007.0
1006.0
1003.0
1006.0
1010.0
1010.0
1009.0
1007.0
1012.0
1012.0
1019.0
1025.0
1033.0
1039.0
1053.0
1067.0
1083.0
1102.0
1129.0
1164.0
1203.0
1246.0
1284.0
1319.0
1351.0
1390.0
1435.0
1468.0
1470.0
1434.0
1353.0
1244.0
1149.0
1087.0
1050.0
1034.0
1018.0
1015.0
1013.0
1013.0
1010.0
1007.0
1004.0
997.0
992.0
991.0
990.0
988.0
986.0
982.0
981.0
981.0
984.0
982.0
983.0
978.0
976.0
977.0
978.0
977.0
975.0
972.0
972.0
975.0
977.0
974.0
972.0
968.0
969.0
970.0
973.0
974.0
973.0
966.0
965.0
966.0
970.0
972.0
971.0
969.0
966.0
966.0
966.0
968.0
967.0
964.0
965.0
968.0
970.0
970.0
968.0
964.0
966.0
968.0
969.0
969.0
970.0
966.0
967.0
969.0
971.0
969.0
967.0
964.0
964.0
970.0
971.0
973.0
973.0
971.0
972.0
975.0
978.0
981.0
981.0
981.0
982.0
986.0
990.0
992.0
994.0
994.0
1000.0
1005.0
1010.0
1016.0
1017.0
1021.0
1021.0
1031.0
1035.0
1037.0
1038.0
1038.0
1035.0
1032.0
1033.0
1030.0
1027.0
1025.0
1022.0
1021.0
1019.0
1017.0
1014.0
1012.0
1011.0
1016.0
1014.0
1015.0
1012.0
1008.0
1006.0
1009.0
1012.0
1012.0
1010.0
1008.0
1006.0
1008.0
1013.0
1015.0
1011.0
1006.0
1006.0
1005.0
1008.0
1009.0
1008.0
1008.0
1004.0
1002.0
1003.0
1003.0
1002.0
1004.0
1002.0
1001.0
1006.0
1006.0
1004.0
999.0
1000.0
1005.0
1003.0
1007.0
1003.0
998.0
1001.0
1002.0
1004.0
1007.0
1002.0
1001.0
998.0
1000.0
1005.0
1006.0
1005.0
1003.0
1004.0
1006.0
1008.0
1009.0
1003.0
1002.0
1003.0
999.0
1005.0
1007.0
1005.0
1004.0
1001.0
1003.0
1007.0
1006.0
1004.0
1002.0
1001.0
1001.0
1002.0
1004.0
1004.0
1001.0
1002.0
1000.0
1002.0
1006.0
1003.0
1004.0
1002.0
1006.0
1007.0
1007.0
1007.0
1002.0
1002.0
1003.0
1007.0
1005.0
1003.0
1000.0
1000.0
1003.0
1003.0
1003.0
1003.0
997.0
998.0
1001.0
1006.0
1007.0
1004.0
1000.0
1001.0
1004.0
1010.0
1005.0
1004.0
1001.0
1001.0
1004.0
1006.0
1004.0
1001.0
1000.0
999.0
1002.0
1004.0
1002.0
1001.0
1000.0
997.0
1000.0
1003.0
1004.0
1003.0
999.0
1000.0
1001.0
1005.0
1007.0
1009.0
1006.0
1003.0
1005.0
1008.0
1007.0
1007.0
1003.0
1003.0
1003.0
1005.0
1007.0
1004.0
1002.0
1002.0
1003.0
1007.0
1007.0
1005.0
1001.0
1002.0
1003.0
1007.0
1010.0
1009.0
1004.0
1005.0
1010.0
1007.0
1004.0
1006.0
1004.0
1007.0
1010.0
1016.0
1014.0
1013.0
1012.0
1011.0
1014.0
1018.0
1021.0
1020.0
1014.0
1013.0
1021.0
1024.0
1025.0
1019.0
1017.0
1015.0
1019.0
1021.0
1019.0
1016.0
1013.0
1015.0
1015.0
1019.0
1020.0
1020.0
1017.0
1018.0
1021.0
1024.0
1024.0
1018.0
1012.0
1014.0
1015.0
1016.0
1013.0
1013.0
1009.0
1008.0
1011.0
1014.0
1017.0
1015.0
1014.0
1014.0
1014.0
1012.0
1013.0
1011.0
1009.0
1009.0
1013.0
1013.0
1015.0
1014.0
1013.0
1012.0
1014.0
1016.0
1017.0
1014.0
1009.0
1012.0
1012.0
1015.0
1015.0
1014.0
1013.0
1015.0
1016.0
1023.0
1022.0
1022.0
1021.0
1028.0
1035.0
1042.0
1049.0
1058.0
1064.0
1076.0
1091.0
1116.0
1142.0
1175.0
1210.0
1246.0
1282.0
1315.0
1346.0
1379.0
1419.0
1454.0
1477.0
1474.0
1437.0
1372.0
1279.0
1194.0
1125.0
1083.0
1047.0
1030.0
1017.0
1018.0
1022.0
1024.0
1021.0
1015.0
1010.0
1005.0
1004.0
1005.0
1003.0
1001.0
997.0
992.0
990.0
992.0
993.0
991.0
989.0
987.0
989.0
988.0
985.0
986.0
984.0
986.0
989.0
987.0
985.0
984.0
982.0
981.0
983.0
981.0
983.0
987.0
984.0
984.0
984.0
986.0
987.0
984.0
981.0
979.0
978.0
977.0
983.0
982.0
980.0
979.0
977.0
980.0
978.0
979.0
980.0
981.0
982.0
986.0
982.0
978.0
975.0
975.0
978.0
978.0
979.0
977.0
975.0
977.0
977.0
978.0
977.0
976.0
977.0
979.0
981.0
985.0
984.0
986.0
985.0
984.0
989.0
992.0
994.0
993.0
994.0
993.0
1000.0
1007.0
1009.0
1009.0
1007.0
1012.0
1016.0
1023.0
1024.0
1027.0
1027.0
1031.0
1036.0
1041.0
1046.0
1046.0
1047.0
1048.0
1054.0
1052.0
1051.0
1050.0
1046.0
1047.0
1051.0
1050.0
1048.0
1047.0
1044.0
1044.0
1048.0
1043.0
1038.0
1030.0
1023.0
1026.0
1032.0
1033.0
1033.0
1030.0
1023.0
1026.0
1027.0
1030.0
1029.0
1028.0
1024.0
1022.0
1026.0
1030.0
1025.0
1023.0
1019.0
1023.0
1026.0
1031.0
1030.0
1026.0
1024.0
1022.0
1026.0
1028.0
1029.0
1027.0
1021.0
1018.0
1016.0
1018.0
1016.0
1020.0
1019.0
1023.0
1024.0
1027.0
1025.0
1021.0
1018.0
1020.0
1023.0
1023.0
1022.0
1024.0
1019.0
1021.0
1022.0
1026.0
1023.0
1019.0
1016.0
1016.0
1018.0
1018.0
1018.0
1017.0
1017.0
1022.0
1024.0
1025.0
1020.0
1018.0
1017.0
1021.0
1024.0
1029.0
1027.0
1024.0
1019.0
1022.0
1023.0
1027.0
1029.0
1030.0
1025.0
1025.0
1024.0
1025.0
1024.0
1024.0
1026.0
1025.0
1028.0
1027.0
1025.0
1023.0
1023.0
1024.0
1026.0
1028.0
1025.0
1021.0
1021.0
1022.0
1025.0
1030.0
1029.0
1026.0
1023.0
1018.0
1020.0
1023.0
1027.0
1026.0
1023.0
1022.0
1021.0
1024.0
1024.0
1022.0
1019.0
1022.0
1025.0
1025.0
1021.0
1014.0
1012.0
1017.0
1023.0
1023.0
1021.0
1021.0
1021.0
1024.0
1025.0
1028.0
1024.0
1021.0
1020.0
1015.0
1020.0
1021.0
1021.0
1021.0
1018.0
1021.0
1025.0
1026.0
1021.0
1015.0
1015.0
1016.0
1019.0
1025.0
1024.0
1019.0
1013.0
1012.0
1019.0
1028.0
1028.0
1025.0
1024.0
1021.0
1017.0
1018.0
1020.0
1023.0
1021.0
1018.0
1022.0
1024.0
1027.0
1027.0
1023.0
1023.0
1023.0
1024.0
1025.0
1023.0
1023.0
1020.0
1019.0
1024.0
1025.0
1026.0
1027.0
1026.0
1027.0
1028.0
1030.0
1030.0
1031.0
1031.0
1033.0
1035.0
1035.0
1036.0
1035.0
1035.0
1039.0
1041.0
1039.0
1038.0
1032.0
1032.0
1036.0
1040.0
1037.0
1035.0
1031.0
1035.0
1034.0
1039.0
1038.0
1033.0
1024.0
1016.0
1015.0
1029.0
1041.0
1043.0
1037.0
1027.0
1021.0
1027.0
1034.0
1037.0
1035.0
1030.0
1032.0
1035.0
1038.0
1038.0
1032.0
1028.0
1027.0
1029.0
1034.0
1033.0
1028.0
1028.0
1029.0
1036.0
1037.0
1037.0
1032.0
1030.0
1032.0
1032.0
1030.0
1032.0
1033.0
1034.0
1033.0
1035.0
1037.0
1036.0
1042.0
1047.0
1061.0
1073.0
1084.0
1095.0
1110.0
1135.0
1168.0
1209.0
1245.0
1280.0
1317.0
1354.0
1396.0
1438.0
1477.0
1496.0
1493.0
1453.0
1382.0
1288.0
1195.0
1128.0
1077.0
1051.0
1039.0
1038.0
1038.0
1036.0
1032.0
1030.0
1030.0
1025.0
1021.0
1016.0
1012.0
1013.0
1015.0
1019.0
1012.0
1012.0
1006.0
1004.0
1007.0
1008.0
1003.0
1004.0
1001.0
1005.0
1007.0
1008.0
1004.0
1002.0
1003.0
1004.0
1006.0
1003.0
1000.0
994.0
992.0
996.0
999.0
1001.0
1001.0
997.0
995.0
994.0
997.0
996.0
997.0
995.0
995.0
998.0
1002.0
1003.0
999.0
991.0
988.0
988.0
995.0
999.0
996.0
994.0
992.0
992.0
993.0
995.0
995.0
993.0
992.0
996.0
997.0
1000.0
995.0
995.0
992.0
994.0
995.0
999.0
999.0
1001.0
1000.0
1003.0
1004.0
1009.0
1010.0
1009.0
1007.0
1010.0
1014.0
1020.0
1023.0
1022.0
1025.0
1027.0
1033.0
1037.0
1039.0
1044.0
1045.0
1046.0
1049.0
1052.0
1057.0
1058.0
1059.0
1063.0
1062.0
1063.0
1062.0
1058.0
1055.0
1060.0
1061.0
1062.0
1062.0
1058.0
1053.0
1051.0
1054.0
1050.0
1044.0
1042.0
1042.0
1039.0
1042.0
1042.0
1039.0
1037.0
1036.0
1035.0
1041.0
1041.0
1037.0
1033.0
1029.0
1031.0
1036.0
1039.0
1040.0
1035.0
1030.0
1029.0
1032.0
1034.0
1033.0
1033.0
1027.0
1029.0
1029.0
1034.0
1032.0
1030.0
1031.0
1029.0
1031.0
1031.0
1029.0
1025.0
1026.0
1031.0
1032.0
1029.0
1022.0
1023.0
1022.0
1023.0
1027.0
1030.0
1032.0
1028.0
1028.0
1028.0
1027.0
1029.0
1029.0
1028.0
1028.0
1024.0
1024.0
1027.0
1030.0
1032.0
1030.0
1030.0
1031.0
1033.0
1033.0
1033.0
1029.0
1027.0
1027.0
1030.0
1029.0
1027.0
1022.0
1024.0
1031.0
1037.0
1035.0
1033.0
1033.0
1033.0
1035.0
1042.0
1049.0
1054.0
1066.0
1088.0
1114.0
1135.0
1143.0
1140.0
1123.0
1101.0
1067.0
1013.0
931.0
836.0
747.0
679.0
653.0
651.0
640.0
635.0
641.0
656.0
676.0
701.0
732.0
759.0
786.0
811.0
835.0
860.0
873.0
883.0
892.0
911.0
927.0
938.0
943.0
945.0
947.0
960.0
974.0
992.0
1002.0
1008.0
1014.0
1024.0
1037.0
1048.0
1052.0
1054.0
1054.0
1059.0
1068.0
1073.0
1072.0
1068.0
1065.0
1070.0
1079.0
1089.0
1087.0
1082.0
1076.0
1081.0
1094.0
1098.0
1104.0
1102.0
1097.0
1101.0
1104.0
1108.0
1107.0
1107.0
1109.0
1117.0
1123.0
1123.0
1123.0
1125.0
1127.0
1133.0
1138.0
1144.0
1147.0
1155.0
1156.0
1159.0
1163.0
1169.0
1174.0
1178.0
1177.0
1183.0
1194.0
1204.0
1209.0
1211.0
1217.0
1227.0
1236.0
1243.0
1247.0
1252.0
1258.0
1269.0
1282.0
1289.0
1289.0
1288.0
1292.0
1297.0
1303.0
1305.0
1307.0
1305.0
1300.0
1299.0
1296.0
1298.0
1292.0
1284.0
1273.0
1268.0
1264.0
1261.0
1253.0
1240.0
1227.0
1217.0
1214.0
1207.0
1196.0
1180.0
1167.0
1166.0
1166.0
1162.0
1149.0
1136.0
1126.0
1119.0
1112.0
1110.0
1098.0
1093.0
1083.0
1079.0
1075.0
1079.0
1076.0
1068.0
1060.0
1057.0
1055.0
1057.0
1055.0
1053.0
1048.0
1049.0
1046.0
1046.0
1048.0
1045.0
1039.0
1034.0
1032.0
1032.0
1030.0
1028.0
1030.0
1037.0
1045.0
1042.0
1036.0
1031.0
1028.0
1030.0
1034.0
1033.0
1031.0
1026.0
1026.0
1030.0
1036.0
1040.0
1032.0
1026.0
1025.0
1028.0
1033.0
1033.0
1034.0
1032.0
1028.0
1028.0
1035.0
1040.0
1036.0
1029.0
1021.0
1020.0
1018.0
1027.0
1027.0
1023.0
1017.0
1016.0
1021.0
1028.0
1031.0
1028.0
1020.0
1014.0
1019.0
1024.0
1027.0
1023.0
1016.0
1019.0
1028.0
1033.0
1026.0
1018.0
1011.0
1009.0
1015.0
1018.0
1025.0
1023.0
1021.0
1025.0
1027.0
1027.0
1023.0
1018.0
1013.0
1019.0
1025.0
1026.0
1023.0
1022.0
1023.0
1020.0
1017.0
1018.0
1020.0
1025.0
1023.0
1018.0
1017.0
1018.0
1018.0
1021.0
1017.0
1016.0
1020.0
1027.0
1030.0
1028.0
1024.0
1016.0
1011.0
1014.0
1017.0
1019.0
1018.0
1023.0
1026.0
1025.0
1022.0
1021.0
1019.0
1017.0
1015.0
1020.0
1026.0
1026.0
1020.0
1018.0
1020.0
1022.0
1017.0
1015.0
1015.0
1022.0
1021.0
1016.0
1019.0
1017.0
1018.0
1018.0
1024.0
1036.0
1032.0
1024.0
1012.0
1012.0
1018.0
1026.0
1028.0
1029.0
1024.0
1017.0
1013.0
1018.0
1027.0
1024.0
1016.0
1015.0
1016.0
1023.0
1027.0
1029.0
1025.0
1027.0
1026.0
1027.0
1026.0
1022.0
1023.0
1018.0
1022.0
1024.0
1024.0
1019.0
1016.0
1018.0
1025.0
1032.0
1033.0
1030.0
1028.0
1025.0
1025.0
1028.0
1028.0
1024.0
1017.0
1020.0
1026.0
1032.0
1033.0
1031.0
1027.0
1025.0
1022.0
1019.0
1016.0
1018.0
1025.0
1027.0
1026.0
1025.0
1029.0
1035.0
1037.0
1036.0
1032.0
1030.0
1021.0
1015.0
1017.0
1023.0
1027.0
1030.0
1025.0
1019.0
1017.0
1028.0
1043.0
1047.0
1038.0
1025.0
1022.0
1025.0
1025.0
1023.0
1025.0
1026.0
1028.0
1028.0
1033.0
1035.0
1038.0
1037.0
1031.0
1027.0
1031.0
1036.0
1036.0
1031.0
1028.0
1026.0
1021.0
1019.0
1021.0
1027.0
1031.0
1033.0
1034.0
1035.0
1037.0
1034.0
1032.0
1031.0
1034.0
1037.0
1044.0
1048.0
1043.0
1034.0
1027.0
1028.0
1026.0
1020.0
1020.0
1026.0
1035.0
1035.0
1031.0
1029.0
1034.0
1042.0
1048.0
1053.0
1043.0
1027.0
1024.0
1027.0
1031.0
1035.0
1029.0
1023.0
1020.0
1026.0
1032.0
1036.0
1037.0
1038.0
1038.0
1034.0
1040.0
1042.0
1037.0
1035.0
1034.0
1032.0
1032.0
1035.0
1038.0
1040.0
1044.0
1041.0
1037.0
1029.0
1023.0
1026.0
1027.0
1030.0
1037.0
1043.0
1042.0
1044.0
1038.0
1036.0
1037.0
1041.0
1038.0
1035.0
1031.0
1033.0
1038.0
1050.0
1054.0
1047.0
1041.0
1046.0
1059.0
1064.0
1056.0
1043.0
1034.0
1033.0
1047.0
1059.0
1064.0
1063.0
1058.0
1044.0
1032.0
1029.0
1033.0
1041.0
1051.0
1056.0
1060.0
1057.0
1055.0
1051.0
1049.0
1043.0
1048.0
1050.0
1048.0
1041.0
1042.0
1044.0
1043.0
1038.0
1040.0
1050.0
1059.0
1056.0
1051.0
1054.0
1052.0
1044.0
1044.0
1041.0
1038.0
1039.0
1039.0
1039.0
1040.0
1040.0
1040.0
1043.0
1044.0
1044.0
1040.0
1043.0
1041.0
1044.0
1044.0
1046.0
1043.0
1039.0
1042.0
1058.0
1073.0
1075.0
1074.0
1078.0
1098.0
1123.0
1141.0
1159.0
1183.0
1229.0
1284.0
1325.0
1349.0
1373.0
1405.0
1445.0
1475.0
1482.0
1458.0
1402.0
1318.0
1222.0
1149.0
1111.0
1100.0
1097.0
1083.0
1061.0
1043.0
1037.0
1043.0
1045.0
1039.0
1038.0
1035.0
1035.0
1029.0
1019.0
1016.0
1023.0
1034.0
1040.0
1028.0
1008.0
992.0
996.0
1010.0
1020.0
1018.0
1009.0
1006.0
1011.0
1008.0
1005.0
1000.0
1005.0
1009.0
1011.0
1012.0
1010.0
1003.0
1001.0
1001.0
1002.0
1002.0
1003.0
1012.0
1018.0
1017.0
1009.0
1005.0
998.0
996.0
1001.0
1007.0
1011.0
1008.0
1006.0
1004.0
1003.0
1005.0
1002.0
1002.0
1001.0
1006.0
1008.0
1005.0
1008.0
1016.0
1019.0
1017.0
1009.0
1004.0
1006.0
1008.0
1012.0
1015.0
1011.0
1004.0
1002.0
1010.0
1018.0
1020.0
1022.0
1023.0
1023.0
1015.0
1006.0
1000.0
1004.0
1012.0
1019.0
1019.0
1019.0
1023.0
1028.0
1028.0
1029.0
1032.0
1039.0
1040.0
1041.0
1044.0
1045.0
1051.0
1060.0
1062.0
1059.0
1054.0
1062.0
1072.0
1078.0
1072.0
1071.0
1068.0
1070.0
1082.0
1083.0
1082.0
1079.0
1081.0
1078.0
1066.0
1064.0
1063.0
1063.0
1062.0
1062.0
1061.0
1058.0
1048.0
1047.0
1058.0
1061.0
1059.0
1050.0
1048.0
1060.0
1065.0
1059.0
1047.0
1044.0
1051.0
1055.0
1051.0
1050.0
1052.0
1051.0
1050.0
1046.0
1040.0
1039.0
1047.0
1061.0
1065.0
1053.0
1044.0
1044.0
1046.0
1048.0
1041.0
1044.0
1050.0
1056.0
1061.0
1062.0
1054.0
1044.0
1035.0
1042.0
1047.0
1051.0
1050.0
1044.0
1042.0
1048.0
1053.0
1053.0
1047.0
1047.0
1049.0
1051.0
1048.0
1046.0
1048.0
1045.0
1040.0
1036.0
1037.0
1046.0
1053.0
1049.0
1044.0
1047.0
1051.0
1050.0
1045.0
1043.0
1041.0
1040.0
1043.0
1054.0
1053.0
1042.0
1029.0
1023.0
1035.0
1046.0
1046.0
1039.0
1030.0
1027.0
1033.0
1036.0
1043.0
1047.0
1043.0
1039.0
1030.0
1033.0
1032.0
1030.0
1030.0
1038.0
1044.0
1042.0
1038.0
1033.0
1034.0
1039.0
1042.0
1037.0
1033.0
1034.0
1037.0
1039.0
1036.0
1032.0
1031.0
1035.0
1036.0
1037.0
1038.0
1038.0
1039.0
1041.0
1034.0
1025.0
1026.0
1041.0
1049.0
1041.0
1028.0
1026.0
1036.0
1047.0
1044.0
1034.0
1027.0
1030.0
1035.0
1036.0
1035.0
1036.0
1036.0
1035.0
1034.0
1032.0
1034.0
1041.0
1039.0
1040.0
1039.0
1042.0
1041.0
1037.0
1035.0
1036.0
1030.0
1034.0
1039.0
1039.0
1043.0
1043.0
1039.0
1035.0
1035.0
1042.0
1047.0
1044.0
1045.0
1051.0
1055.0
1049.0
1046.0
1046.0
1046.0
1046.0
1042.0
1045.0
1046.0
1050.0
1048.0
1045.0
1040.0
1041.0
1040.0
1043.0
1047.0
1050.0
1050.0
1046.0
1041.0
1042.0
1042.0
1045.0
1045.0
1042.0
1045.0
1048.0
1048.0
1042.0
1035.0
1030.0
1034.0
1042.0
1044.0
1041.0
1039.0
1032.0
1020.0
1017.0
1028.0
1041.0
1041.0
1036.0
1035.0
1041.0
1044.0
1043.0
1038.0
1037.0
1035.0
1037.0
1044.0
1043.0
1030.0
1024.0
1033.0
1044.0
1050.0
1047.0
1041.0
1045.0
1055.0
1068.0
1078.0
1091.0
1102.0
1115.0
1136.0
1171.0
1215.0
1253.0
1278.0
1300.0
1333.0
1377.0
1417.0
1447.0
1465.0
1458.0
1413.0
1331.0
1238.0
1167.0
1127.0
1100.0
1078.0
1066.0
1060.0
1053.0
1043.0
1036.0
1034.0
1039.0
1041.0
1028.0
1012.0
1007.0
1012.0
1007.0
1006.0
1016.0
1025.0
1018.0
1012.0
1008.0
1015.0
1021.0
1017.0
1008.0
1000.0
995.0
1001.0
1004.0
1003.0
1004.0
1009.0
1011.0
1009.0
1011.0
1006.0
1000.0
992.0
993.0
1001.0
1004.0
999.0
991.0
989.0
1003.0
1008.0
1008.0
1003.0
996.0
993.0
996.0
992.0
995.0
995.0
1002.0
1004.0
1005.0
996.0
988.0
989.0
998.0
1005.0
1000.0
996.0
994.0
1000.0
998.0
994.0
995.0
1001.0
1006.0
1008.0
999.0
990.0
986.0
989.0
996.0
995.0
990.0
989.0
996.0
1007.0
1003.0
998.0
998.0
1001.0
1008.0
1010.0
1014.0
1016.0
1020.0
1020.0
1024.0
1032.0
1038.0
1033.0
1034.0
1035.0
1039.0
1040.0
1048.0
1054.0
1053.0
1051.0
1054.0
1058.0
1052.0
1044.0
1037.0
1041.0
1048.0
1053.0
1056.0
1049.0
1040.0
1040.0
1046.0
1041.0
1032.0
1033.0
1043.0
1050.0
1047.0
1040.0
1033.0
1033.0
1034.0
1035.0
1040.0
1044.0
1047.0
1039.0
1025.0
1019.0
1026.0
1039.0
1050.0
1042.0
1030.0
1028.0
1031.0
1037.0
1033.0
1024.0
1022.0
1031.0
1038.0
1031.0
1020.0
1020.0
1028.0
1040.0
1046.0
1041.0
1026.0
1018.0
1025.0
1038.0
1041.0
1025.0
1013.0
1019.0
1034.0
1037.0
1029.0
1026.0
1033.0
1037.0
1041.0
1038.0
1035.0
1031.0
1032.0
1029.0
1027.0
1019.0
1025.0
1035.0
1039.0
1039.0
1037.0
1038.0
1038.0
1039.0
1043.0
1041.0
1035.0
1030.0
1031.0
1035.0
1029.0
1022.0
1020.0
1025.0
1025.0
1027.0
1035.0
1038.0
1030.0
1021.0
1017.0
1024.0
1035.0
1039.0
1035.0
1022.0
1019.0
1037.0
1049.0
1038.0
1019.0
1013.0
1024.0
1030.0
1031.0
1029.0
1027.0
1027.0
1020.0
1017.0
1023.0
1027.0
1026.0
1023.0
1022.0
1019.0
1025.0
1032.0
1032.0
1025.0
1023.0
1023.0
1029.0
1035.0
1032.0
1021.0
1016.0
1018.0
1023.0
1026.0
1027.0
1023.0
1020.0
1020.0
1026.0
1032.0
1038.0
1044.0
1042.0
1032.0
1016.0
1011.0
1016.0
1024.0
1028.0
1029.0
1033.0
1030.0
1023.0
1018.0
1015.0
1018.0
1026.0
1029.0
1027.0
1018.0
1023.0
1031.0
1027.0
1022.0
1023.0
1027.0
1026.0
1022.0
1027.0
1035.0
1032.0
1026.0
1021.0
1023.0
1027.0
1031.0
1037.0
1045.0
1041.0
1037.0
1037.0
1037.0
1031.0
1029.0
1030.0
1035.0
1037.0
1037.0
1037.0
1038.0
1035.0
1030.0
1031.0
1032.0
1032.0
1037.0
1042.0
1040.0
1039.0
1033.0
1030.0
1029.0
1027.0
1028.0
1029.0
1027.0
1025.0
1028.0
1031.0
1036.0
1035.0
1022.0
1012.0
1013.0
1025.0
1039.0
1040.0
1029.0
1012.0
1006.0
1018.0
1032.0
1039.0
1035.0
1016.0
1011.0
1023.0
1039.0
1045.0
1034.0
1029.0
1039.0
1059.0
1081.0
1098.0
1117.0
1149.0
1196.0
1252.0
1299.0
1336.0
1367.0
1404.0
1443.0
1458.0
1434.0
1362.0
1255.0
1160.0
1103.0
1072.0
1055.0
1045.0
1042.0
1039.0
1023.0
1019.0
1023.0
1022.0
1010.0
995.0
994.0
1000.0
1007.0
1009.0
1002.0
995.0
992.0
997.0
1005.0
1006.0
998.0
992.0
987.0
987.0
991.0
993.0
993.0
991.0
995.0
993.0
990.0
986.0
984.0
985.0
988.0
988.0
991.0
990.0
989.0
990.0
990.0
995.0
996.0
990.0
977.0
971.0
976.0
984.0
990.0
994.0
995.0
996.0
990.0
984.0
980.0
984.0
982.0
983.0
981.0
988.0
994.0
993.0
990.0
984.0
984.0
986.0
993.0
992.0
993.0
983.0
974.0
976.0
983.0
988.0
987.0
989.0
990.0
995.0
996.0
999.0
995.0
996.0
999.0
1002.0
1005.0
1006.0
1006.0
1004.0
1002.0
1010.0
1021.0
1026.0
1028.0
1027.0
1030.0
1038.0
1035.0
1034.0
1034.0
1033.0
1030.0
1038.0
1047.0
1055.0
1061.0
1055.0
1043.0
1034.0
1035.0
1036.0
1034.0
1031.0
1033.0
1037.0
1042.0
1041.0
1032.0
1030.0
1030.0
1034.0
1035.0
1034.0
1036.0
1033.0
1036.0
1038.0
1035.0
1030.0
1027.0
1025.0
1024.0
1021.0
1022.0
1024.0
1026.0
1027.0
1025.0
1028.0
1030.0
1032.0
1033.0
1026.0
1020.0
1018.0
1021.0
1025.0
1035.0
1035.0
1029.0
1021.0
1016.0
1024.0
1031.0
1029.0
1021.0
1017.0
1019.0
1024.0
1025.0
1021.0
1019.0
1022.0
1021.0
1022.0
1022.0
1022.0
1026.0
1032.0
1034.0
1032.0
1030.0
1029.0
1030.0
1028.0
1027.0
1024.0
1020.0
1022.0
1028.0
1034.0
1038.0
1036.0
1029.0
1029.0
1026.0
1024.0
1027.0
1028.0
1027.0
1022.0
1020.0
1021.0
1028.0
1034.0
1038.0
1037.0
1035.0
1030.0
1025.0
1020.0
1017.0
1016.0
1019.0
1019.0
1021.0
1023.0
1026.0
1026.0
1028.0
1027.0
1026.0
1027.0
1028.0
1025.0
1024.0
1024.0
1024.0
1026.0
1026.0
1020.0
1020.0
1022.0
1025.0
1026.0
1028.0
1027.0
1023.0
1014.0
1008.0
1011.0
1015.0
1017.0
1020.0
1027.0
1035.0
1038.0
1032.0
1023.0
1012.0
1012.0
1015.0
1020.0
1022.0
1023.0
1019.0
1019.0
1019.0
1021.0
1022.0
1022.0
1024.0
1027.0
1027.0
1022.0
1019.0
1018.0
1020.0
1025.0
1028.0
1025.0
1023.0
1020.0
1016.0
1017.0
1023.0
1030.0
1030.0
1025.0
1022.0
1020.0
1020.0
1023.0
1024.0
1023.0
1019.0
1020.0
1022.0
1028.0
1026.0
1022.0
1014.0
1010.0
1015.0
1021.0
1021.0
1014.0
1012.0
1015.0
1023.0
1028.0
1029.0
1026.0
1022.0
1019.0
1020.0
1018.0
1020.0
1020.0
1025.0
1027.0
1033.0
1037.0
1029.0
1026.0
1031.0
1040.0
1043.0
1038.0
1030.0
1023.0
1026.0
1029.0
1030.0
1031.0
1031.0
1031.0
1028.0
1028.0
1031.0
1038.0
1038.0
1039.0
1038.0
1043.0
1047.0
1043.0
1035.0
1027.0
1021.0
1023.0
1033.0
1039.0
1037.0
1026.0
1016.0
1018.0
1022.0
1026.0
1025.0
1021.0
1022.0
1026.0
1032.0
1033.0
1031.0
1030.0
1030.0
1028.0
1028.0
1021.0
1022.0
1022.0
1031.0
1035.0
1030.0
1024.0
1017.0
1023.0
1025.0
1029.0
1032.0
1027.0
1030.0
1030.0
1034.0
1035.0
1036.0
1041.0
1048.0
1060.0
1072.0
1085.0
1102.0
1127.0
1151.0
1178.0
1212.0
1254.0
1293.0
1322.0
1350.0
1381.0
1415.0
1441.0
1455.0
1444.0
1399.0
1322.0
1229.0
1158.0
1117.0
1091.0
1069.0
1051.0
1045.0
1036.0
1032.0
1026.0
1022.0
1022.0
1022.0
1021.0
1019.0
1014.0
1008.0
1004.0
1006.0
1011.0
1014.0
1012.0
1003.0
994.0
990.0
996.0
1006.0
1012.0
1008.0
1003.0
997.0
995.0
995.0
992.0
993.0
990.0
987.0
987.0
990.0
994.0
999.0
1000.0
998.0
996.0
989.0
989.0
986.0
985.0
984.0
986.0
992.0
993.0
991.0
986.0
989.0
996.0
997.0
992.0
985.0
979.0
976.0
981.0
987.0
992.0
995.0
989.0
989.0
989.0
990.0
991.0
990.0
985.0
987.0
990.0
994.0
993.0
991.0
991.0
987.0
987.0
988.0
986.0
986.0
986.0
989.0
990.0
993.0
994.0
993.0
993.0
996.0
998.0
997.0
1000.0
999.0
998.0
999.0
1002.0
1007.0
1012.0
1013.0
1009.0
1011.0
1021.0
1037.0
1039.0
1034.0
1027.0
1024.0
1033.0
1044.0
1051.0
1053.0
1054.0
1052.0
1052.0
1051.0
1048.0
1046.0
1043.0
1040.0
1044.0
1049.0
1054.0
1050.0
1040.0
1037.0
1035.0
1042.0
1043.0
1041.0
1037.0
1035.0
1032.0
1033.0
1035.0
1040.0
1041.0
1041.0
1037.0
1034.0
1032.0
1031.0
1029.0
1027.0
1029.0
1032.0
1037.0
1039.0
1035.0
1036.0
1035.0
1037.0
1041.0
1039.0
1035.0
1031.0
1030.0
1032.0
1036.0
1034.0
1030.0
1028.0
1031.0
1035.0
1036.0
1034.0
1028.0
1028.0
1029.0
1035.0
1041.0
1042.0
1035.0
1027.0
1023.0
1027.0
1034.0
1034.0
1027.0
1024.0
1031.0
1038.0
1043.0
1040.0
1036.0
1035.0
1033.0
1038.0
1038.0
1032.0
1022.0
1020.0
1024.0
1030.0
1034.0
1036.0
1035.0
1040.0
1037.0
1034.0
1027.0
1030.0
1034.0
1039.0
1039.0
1038.0
1035.0
1031.0
1026.0
1026.0
1030.0
1035.0
1034.0
1033.0
1034.0
1035.0
1041.0
1044.0
1042.0
1033.0
1030.0
1029.0
1030.0
1030.0
1030.0
1030.0
1027.0
1029.0
1028.0
1034.0
1035.0
1036.0
1031.0
1029.0
1032.0
1032.0
1030.0
1027.0
1024.0
1024.0
1026.0
1031.0
1035.0
1034.0
1032.0
1032.0
1028.0
1030.0
1025.0
1025.0
1023.0
1026.0
1029.0
1033.0
1031.0
1027.0
1023.0
1028.0
1035.0
1038.0
1040.0
1034.0
1027.0
1019.0
1022.0
1032.0
1040.0
1039.0
1025.0
1020.0
1028.0
1038.0
1039.0
1031.0
1025.0
1022.0
1026.0
1031.0
1036.0
1038.0
1035.0
1024.0
1024.0
1025.0
1032.0
1031.0
1023.0
1025.0
1030.0
1037.0
1038.0
1034.0
1029.0
1032.0
1039.0
1044.0
1045.0
1040.0
1034.0
1035.0
1040.0
1042.0
1040.0
1040.0
1043.0
1045.0
1042.0
1041.0
1038.0
1035.0
1035.0
1037.0
1041.0
1046.0
1047.0
1043.0
1041.0
1040.0
1039.0
1044.0
1047.0
1049.0
1049.0
1046.0
1043.0
1034.0
1026.0
1025.0
1027.0
1033.0
1033.0
1034.0
1032.0
1036.0
1037.0
1041.0
1043.0
1036.0
1029.0
1026.0
1030.0
1036.0
1039.0
1034.0
1027.0
1022.0
1024.0
1030.0
1037.0
1039.0
1040.0
1036.0
1030.0
1024.0
1026.0
1033.0
1038.0
1035.0
1033.0
1035.0
1041.0
1053.0
1058.0
1061.0
1064.0
1070.0
1083.0
1101.0
1127.0
1152.0
1181.0
1209.0
1242.0
1277.0
1307.0
1334.0
1360.0
1392.0
1428.0
1454.0
1457.0
1433.0
1375.0
1294.0
1209.0
1147.0
1109.0
1081.0
1056.0
1039.0
1037.0
1041.0
1040.0
1038.0
1029.0
1024.0
1023.0
1022.0
1021.0
1018.0
1013.0
1014.0
1017.0
1019.0
1017.0
1012.0
1006.0
1008.0
1010.0
1011.0
1004.0
1000.0
1001.0
1008.0
1015.0
1015.0
1011.0
1001.0
996.0
997.0
1000.0
999.0
999.0
1001.0
999.0
1005.0
1006.0
1009.0
1003.0
1001.0
994.0
991.0
989.0
995.0
996.0
997.0
996.0
996.0
1000.0
1004.0
1006.0
1006.0
1002.0
995.0
992.0
994.0
997.0
1003.0
1001.0
999.0
1003.0
1002.0
1002.0
999.0
992.0
989.0
991.0
998.0
998.0
994.0
990.0
992.0
995.0
1000.0
999.0
999.0
995.0
996.0
1003.0
1006.0
1008.0
1007.0
1003.0
1009.0
1011.0
1014.0
1013.0
1010.0
1009.0
1010.0
1018.0
1025.0
1026.0
1023.0
1023.0
1029.0
1037.0
1040.0
1039.0
1040.0
1045.0
1050.0
1057.0
1062.0
1059.0
1055.0
1054.0
1059.0
1065.0
1068.0
1060.0
1053.0
1050.0
1048.0
1051.0
1052.0
1052.0
1052.0
1049.0
1048.0
1048.0
1048.0
1046.0
1044.0
1038.0
1041.0
1044.0
1049.0
1054.0
1050.0
1044.0
1039.0
1039.0
1045.0
1050.0
1047.0
1045.0
1038.0
1039.0
1044.0
1045.0
1043.0
1040.0
1043.0
1040.0
1045.0
1043.0
1039.0
1038.0
1036.0
1037.0
1038.0
1042.0
1044.0
1039.0
1038.0
1040.0
1046.0
1046.0
1042.0
1030.0
1030.0
1033.0
1039.0
1042.0
1042.0
1039.0
1038.0
1039.0
1044.0
1042.0
1040.0
1036.0
1038.0
1039.0
1038.0
1038.0
1044.0
1047.0
1046.0
1045.0
1044.0
1042.0
1043.0
1039.0
1042.0
1042.0
1044.0
1041.0
1039.0
1043.0
1042.0
1049.0
1049.0
1042.0
1034.0
1033.0
1038.0
1043.0
1044.0
1045.0
1042.0
1043.0
1045.0
1045.0
1045.0
1044.0
1042.0
1038.0
1037.0
1038.0
1041.0
1046.0
1045.0
1038.0
1033.0
1033.0
1039.0
1040.0
1044.0
1042.0
1041.0
1047.0
1044.0
1039.0
1032.0
1027.0
1029.0
1037.0
1045.0
1047.0
1043.0
1038.0
1034.0
1033.0
1038.0
1041.0
1040.0
1038.0
1036.0
1038.0
1044.0
1037.0
1034.0
1030.0
1033.0
1040.0
1040.0
1040.0
1037.0
1034.0
1033.0
1038.0
1043.0
1046.0
1046.0
1042.0
1039.0
1038.0
1038.0
1034.0
1035.0
1037.0
1039.0
1043.0
1046.0
1042.0
1034.0
1027.0
1028.0
1031.0
1039.0
1046.0
1044.0
1043.0
1039.0
1036.0
1038.0
1041.0
1038.0
1032.0
1030.0
1031.0
1036.0
1042.0
1042.0
1040.0
1040.0
1044.0
1053.0
1049.0
1047.0
1043.0
1042.0
1045.0
1048.0
1050.0
1051.0
1050.0
1052.0
1053.0
1049.0
1043.0
1039.0
1034.0
1033.0
1039.0
1048.0
1049.0
1049.0
1047.0
1047.0
1049.0
1051.0
1050.0
1047.0
1042.0
1040.0
1040.0
1043.0
1042.0
1036.0
1034.0
1038.0
1043.0
1046.0
1044.0
1043.0
1043.0
1044.0
1044.0
1040.0
1040.0
1036.0
1027.0
1027.0
1032.0
1036.0
1036.0
1034.0
1036.0
1039.0
1041.0
1041.0
1040.0
1037.0
1037.0
1039.0
1042.0
1046.0
1052.0
1052.0
1056.0
1063.0
1071.0
1086.0
1093.0
1107.0
1128.0
1164.0
1209.0
1253.0
1292.0
1327.0
1360.0
1399.0
1446.0
1463.0
1433.0
1345.0
1229.0
1140.0
1087.0
1058.0
1042.0
1042.0
1041.0
1031.0
1020.0
1020.0
1020.0
1016.0
1009.0
1009.0
1012.0
1013.0
1011.0
1008.0
1003.0
1006.0
1005.0
1007.0
1006.0
1007.0
1009.0
1009.0
1009.0
1010.0
1003.0
1005.0
1003.0
