# Simple Text Format
# Sampling Rate (Hz):= 360.00
# Resolution:= 12
# Labels:= ECG
1029.0
1029.0
1030.0
1029.0
1027.0
1026.0
1026.0
1028.0
1030.0
1027.0
1020.0
1020.0
1023.0
1025.0
1026.0
1025.0
1021.0
1019.0
1022.0
1024.0
1026.0
1023.0
1023.0
1022.0
1025.0
1029.0
1033.0
1029.0
1026.0
1022.0
1020.0
1023.0
1028.0
1030.0
1028.0
1028.0
1033.0
1032.0
1036.0
1031.0
1027.0
1025.0
1027.0
1031.0
1033.0
1032.0
1031.0
1030.0
1034.0
1032.0
1035.0
1034.0
1030.0
1031.0
1029.0
1031.0
1033.0
1032.0
1032.0
1031.0
1030.0
1031.0
1032.0
1031.0
1032.0
1027.0
1029.0
1033.0
1033.0
1032.0
1032.0
1030.0
1032.0
1036.0
1037.0
1037.0
1031.0
1029.0
1030.0
1032.0
1036.0
1035.0
1030.0
1027.0
1030.0
1035.0
1036.0
1037.0
1034.0
1032.0
1031.0
1034.0
1039.0
1038.0
1035.0
1035.0
1034.0
1035.0
1035.0
1033.0
1032.0
1029.0
1034.0
1037.0
1038.0
1035.0
1034.0
1032.0
1033.0
1037.0
1041.0
1040.0
1035.0
1034.0
1035.0
1036.0
1037.0
1035.0
1034.0
1036.0
1042.0
1044.0
1047.0
1047.0
1045.0
1045.0
1048.0
1050.0
1052.0
1053.0
1048.0
1048.0
1048.0
1048.0
1048.0
1046.0
1043.0
1043.0
1043.0
1047.0
1051.0
1048.0
1046.0
1044.0
1047.0
1052.0
1056.0
1054.0
1053.0
1048.0
1044.0
1045.0
1041.0
1043.0
1037.0
1037.0
1038.0
1040.0
1041.0
1043.0
1039.0
1038.0
1038.0
1043.0
1041.0
1042.0
1040.0
1039.0
1037.0
1037.0
1041.0
1040.0
1037.0
1038.0
1039.0
1044.0
1043.0
1040.0
1039.0
1038.0
1042.0
1048.0
1046.0
1048.0
1046.0
1048.0
1053.0
1062.0
1070.0
1080.0
1094.0
1110.0
1129.0
1151.0
1181.0
1216.0
1253.0
1290.0
1329.0
1368.0
1398.0
1428.0
1458.0
1492.0
1524.0
1535.0
1521.0
1470.0
1384.0
1279.0
1197.0
1144.0
1113.0
1091.0
1074.0
1064.0
1059.0
1058.0
1055.0
1048.0
1041.0
1036.0
1034.0
1030.0
1030.0
1025.0
1016.0
1012.0
1015.0
1017.0
1018.0
1017.0
1015.0
1014.0
1015.0
1018.0
1015.0
1008.0
1008.0
1008.0
1013.0
1017.0
1016.0
1010.0
1006.0
1003.0
1002.0
1005.0
1005.0
1002.0
1001.0
1002.0
1006.0
1006.0
1007.0
1005.0
1003.0
1004.0
1006.0
1006.0
1002.0
997.0
994.0
998.0
1000.0
1002.0
1001.0
995.0
996.0
999.0
1002.0
1001.0
998.0
992.0
992.0
993.0
995.0
996.0
997.0
998.0
997.0
996.0
994.0
995.0
998.0
998.0
997.0
997.0
999.0
998.0
1001.0
1003.0
997.0
996.0
998.0
1003.0
1006.0
1007.0
1009.0
1015.0
1015.0
1018.0
1018.0
1019.0
1023.0
1029.0
1037.0
1043.0
1050.0
1055.0
1057.0
1059.0
1068.0
1073.0
1075.0
1075.0
1075.0
1072.0
1074.0
1075.0
1074.0
1076.0
1076.0
1073.0
1074.0
1067.0
1065.0
1059.0
1058.0
1060.0
1062.0
1065.0
1060.0
1053.0
1048.0
1049.0
1049.0
1056.0
1057.0
1056.0
1055.0
1055.0
1055.0
1058.0
1053.0
1043.0
1042.0
1043.0
1052.0
1055.0
1053.0
1053.0
1050.0
1042.0
1047.0
1049.0
1052.0
1046.0
1038.0
1028.0
1033.0
1041.0
1046.0
1045.0
1041.0
1040.0
1036.0
1040.0
1045.0
1041.0
1037.0
1031.0
1031.0
1033.0
1036.0
1037.0
1034.0
1033.0
1037.0
1038.0
1046.0
1045.0
1041.0
1037.0
1039.0
1038.0
1036.0
1034.0
1034.0
1036.0
1035.0
1033.0
1034.0
1040.0
1041.0
1039.0
1038.0
1037.0
1037.0
1038.0
1032.0
1031.0
1034.0
1040.0
1039.0
1036.0
1031.0
1035.0
1039.0
1041.0
1042.0
1036.0
1031.0
1030.0
1033.0
1036.0
1041.0
1039.0
1033.0
1029.0
1028.0
1032.0
1030.0
1032.0
1032.0
1032.0
1033.0
1036.0
1035.0
1035.0
1030.0
1028.0
1033.0
1034.0
1037.0
1033.0
1031.0
1026.0
1028.0
1029.0
1033.0
1036.0
1030.0
1029.0
1027.0
1027.0
1031.0
1034.0
1034.0
1032.0
1033.0
1031.0
1030.0
1028.0
1027.0
1024.0
1025.0
1030.0
1034.0
1032.0
1027.0
1029.0
1029.0
1033.0
1034.0
1035.0
1031.0
1028.0
1026.0
1028.0
1033.0
1035.0
1036.0
1037.0
1040.0
1039.0
1043.0
1039.0
1036.0
1036.0
1036.0
1036.0
1036.0
1035.0
1033.0
1032.0
1033.0
1033.0
1035.0
1037.0
1036.0
1038.0
1042.0
1047.0
1049.0
1043.0
1032.0
1025.0
1025.0
1028.0
1028.0
1028.0
1025.0
1026.0
1026.0
1028.0
1031.0
1029.0
1027.0
1027.0
1030.0
1028.0
1031.0
1029.0
1025.0
1027.0
1026.0
1030.0
1028.0
1028.0
1026.0
1024.0
1028.0
1030.0
1031.0
1032.0
1030.0
1029.0
1032.0
1038.0
1041.0
1043.0
1043.0
1044.0
1053.0
1063.0
1073.0
1084.0
1097.0
1124.0
1159.0
1199.0
1240.0
1285.0
1324.0
1362.0
1398.0
1439.0
1481.0
1515.0
1528.0
1521.0
1484.0
1407.0
1307.0
1214.0
1145.0
1101.0
1074.0
1056.0
1047.0
1038.0
1034.0
1032.0
1032.0
1028.0
1021.0
1017.0
1009.0
1004.0
1002.0
1005.0
1002.0
1000.0
998.0
995.0
999.0
997.0
1000.0
999.0
994.0
993.0
988.0
987.0
988.0
987.0
986.0
985.0
988.0
990.0
989.0
986.0
983.0
981.0
982.0
983.0
983.0
978.0
980.0
978.0
979.0
984.0
987.0
986.0
982.0
974.0
972.0
970.0
971.0
970.0
969.0
968.0
971.0
976.0
978.0
978.0
974.0
970.0
973.0
978.0
978.0
976.0
974.0
975.0
976.0
981.0
981.0
977.0
974.0
975.0
976.0
983.0
985.0
985.0
985.0
980.0
981.0
988.0
995.0
1001.0
1001.0
1004.0
1010.0
1021.0
1026.0
1027.0
1031.0
1036.0
1044.0
1048.0
1050.0
1051.0
1050.0
1056.0
1058.0
1064.0
1067.0
1061.0
1056.0
1055.0
1054.0
1055.0
1053.0
1051.0
1047.0
1046.0
1049.0
1048.0
1045.0
1039.0
1037.0
1039.0
1041.0
1045.0
1042.0
1041.0
1035.0
1032.0
1034.0
1037.0
1039.0
1035.0
1035.0
1034.0
1035.0
1037.0
1036.0
1035.0
1034.0
1036.0
1038.0
1039.0
1037.0
1033.0
1026.0
1023.0
1024.0
1028.0
1034.0
1035.0
1029.0
1028.0
1028.0
1029.0
1029.0
1030.0
1030.0
1031.0
1031.0
1029.0
1030.0
1025.0
1024.0
1023.0
1027.0
1034.0
1035.0
1032.0
1026.0
1026.0
1029.0
1029.0
1030.0
1029.0
1029.0
1031.0
1032.0
1032.0
1032.0
1034.0
1029.0
1032.0
1033.0
1036.0
1038.0
1040.0
1033.0
1030.0
1030.0
1034.0
1036.0
1036.0
1035.0
1034.0
1032.0
1036.0
1038.0
1034.0
1033.0
1033.0
1037.0
1040.0
1042.0
1040.0
1034.0
1029.0
1027.0
1031.0
1035.0
1036.0
1038.0
1039.0
1038.0
1039.0
1042.0
1040.0
1041.0
1039.0
1034.0
1033.0
1035.0
1036.0
1032.0
1030.0
1026.0
1030.0
1033.0
1034.0
1032.0
1033.0
1032.0
1038.0
1038.0
1037.0
1036.0
1036.0
1040.0
1042.0
1038.0
1031.0
1024.0
1024.0
1030.0
1036.0
1039.0
1038.0
1036.0
1036.0
1039.0
1042.0
1044.0
1042.0
1039.0
1039.0
1042.0
1046.0
1044.0
1038.0
1031.0
1033.0
1036.0
1038.0
1038.0
1037.0
1037.0
1042.0
1048.0
1054.0
1057.0
1055.0
1052.0
1048.0
1048.0
1050.0
1053.0
1058.0
1050.0
1050.0
1043.0
1047.0
1051.0
1055.0
1054.0
1047.0
1041.0
1045.0
1048.0
1047.0
1049.0
1049.0
1050.0
1053.0
1055.0
1054.0
1047.0
1039.0
1041.0
1044.0
1043.0
1042.0
1041.0
1041.0
1040.0
1039.0
1042.0
1040.0
1038.0
1034.0
1034.0
1035.0
1037.0
1042.0
1042.0
1043.0
1043.0
1045.0
1044.0
1045.0
1044.0
1041.0
1040.0
1044.0
1040.0
1039.0
1039.0
1040.0
1044.0
1055.0
1059.0
1070.0
1077.0
1094.0
1116.0
1140.0
1163.0
1191.0
1228.0
1273.0
1318.0
1357.0
1387.0
1417.0
1453.0
1491.0
1516.0
1515.0
1481.0
1410.0
1310.0
1219.0
1156.0
1112.0
1081.0
1069.0
1059.0
1052.0
1050.0
1046.0
1041.0
1038.0
1030.0
1023.0
1018.0
1020.0
1019.0
1015.0
1009.0
1005.0
1006.0
1008.0
1008.0
1005.0
1001.0
1002.0
1005.0
1010.0
1011.0
1006.0
1003.0
1003.0
1005.0
1005.0
1005.0
1003.0
997.0
998.0
1002.0
1005.0
1004.0
998.0
994.0
993.0
995.0
999.0
995.0
990.0
987.0
987.0
991.0
993.0
993.0
992.0
984.0
985.0
993.0
993.0
988.0
986.0
984.0
984.0
986.0
987.0
987.0
989.0
989.0
987.0
987.0
988.0
989.0
987.0
988.0
989.0
988.0
990.0
995.0
996.0
999.0
997.0
1002.0
1007.0
1016.0
1021.0
1027.0
1033.0
1041.0
1048.0
1055.0
1055.0
1049.0
1050.0
1054.0
1059.0
1064.0
1063.0
1060.0
1056.0
1057.0
1057.0
1057.0
1053.0
1048.0
1049.0
1047.0
1048.0
1047.0
1046.0
1041.0
1039.0
1042.0
1046.0
1045.0
1041.0
1038.0
1037.0
1041.0
1043.0
1040.0
1038.0
1037.0
1034.0
1036.0
1036.0
1035.0
1033.0
1028.0
1027.0
1026.0
1034.0
1034.0
1033.0
1030.0
1028.0
1031.0
1032.0
1032.0
1027.0
1026.0
1029.0
1031.0
1031.0
1031.0
1028.0
1025.0
1027.0
1032.0
1035.0
1030.0
1029.0
1026.0
1026.0
1030.0
1028.0
1028.0
1026.0
1028.0
1027.0
1027.0
1028.0
1029.0
1031.0
1028.0
1027.0
1030.0
1028.0
1028.0
1024.0
1022.0
1024.0
1027.0
1032.0
1035.0
1030.0
1026.0
1024.0
1026.0
1029.0
1030.0
1027.0
1025.0
1025.0
1026.0
1030.0
1027.0
1025.0
1021.0
1021.0
1024.0
1027.0
1028.0
1027.0
1025.0
1026.0
1028.0
1028.0
1028.0
1027.0
1025.0
1023.0
1027.0
1030.0
1028.0
1025.0
1021.0
1023.0
1026.0
1031.0
1029.0
1027.0
1025.0
1027.0
1028.0
1028.0
1026.0
1025.0
1023.0
1026.0
1028.0
1031.0
1030.0
1026.0
1024.0
1026.0
1028.0
1033.0
1033.0
1028.0
1023.0
1022.0
1023.0
1028.0
1026.0
1026.0
1026.0
1025.0
1022.0
1026.0
1023.0
1024.0
1023.0
1024.0
1029.0
1027.0
1026.0
1024.0
1022.0
1024.0
1026.0
1030.0
1031.0
1033.0
1029.0
1032.0
1035.0
1038.0
1044.0
1054.0
1069.0
1090.0
1112.0
1135.0
1145.0
1140.0
1123.0
1104.0
1069.0
1019.0
949.0
870.0
787.0
697.0
621.0
575.0
539.0
526.0
523.0
529.0
544.0
568.0
598.0
630.0
671.0
714.0
763.0
802.0
831.0
849.0
865.0
879.0
892.0
908.0
916.0
924.0
930.0
943.0
952.0
965.0
976.0
985.0
996.0
1005.0
1015.0
1026.0
1038.0
1047.0
1056.0
1066.0
1070.0
1079.0
1084.0
1082.0
1083.0
1086.0
1091.0
1098.0
1099.0
1097.0
1097.0
1097.0
1105.0
1105.0
1108.0
1110.0
1108.0
1110.0
1112.0
1117.0
1118.0
1121.0
1121.0
1124.0
1129.0
1136.0
1139.0
1139.0
1137.0
1139.0
1141.0
1148.0
1152.0
1157.0
1157.0
1161.0
1163.0
1170.0
1176.0
1183.0
1183.0
1189.0
1195.0
1201.0
1206.0
1206.0
1209.0
1215.0
1225.0
1234.0
1241.0
1246.0
1249.0
1258.0
1264.0
1273.0
1279.0
1283.0
1288.0
1292.0
1301.0
1307.0
1314.0
1320.0
1323.0
1326.0
1336.0
1341.0
1340.0
1339.0
1335.0
1334.0
1334.0
1334.0
1331.0
1325.0
1315.0
1311.0
1306.0
1304.0
1297.0
1288.0
1277.0
1269.0
1261.0
1253.0
1245.0
1236.0
1223.0
1214.0
1205.0
1197.0
1189.0
1179.0
1169.0
1159.0
1153.0
1149.0
1140.0
1128.0
1118.0
1111.0
1109.0
1103.0
1100.0
1093.0
1086.0
1078.0
1074.0
1073.0
1075.0
1071.0
1063.0
1059.0
1057.0
1058.0
1057.0
1050.0
1047.0
1044.0
1043.0
1047.0
1044.0
1043.0
1038.0
1036.0
1037.0
1039.0
1036.0
1035.0
1033.0
1033.0
1037.0
1036.0
1034.0
1033.0
1033.0
1033.0
1034.0
1034.0
1033.0
1027.0
1024.0
1027.0
1030.0
1032.0
1034.0
1028.0
1025.0
1023.0
1027.0
1029.0
1027.0
1026.0
1022.0
1026.0
1026.0
1028.0
1029.0
1025.0
1023.0
1021.0
1024.0
1025.0
1021.0
1022.0
1018.0
1017.0
1017.0
1020.0
1019.0
1014.0
1015.0
1017.0
1018.0
1020.0
1016.0
1014.0
1011.0
1011.0
1014.0
1018.0
1016.0
1013.0
1011.0
1007.0
1013.0
1012.0
1012.0
1009.0
1008.0
1008.0
1010.0
1011.0
1014.0
1009.0
1004.0
1002.0
1005.0
1010.0
1009.0
1008.0
1007.0
1006.0
1006.0
1011.0
1007.0
1005.0
1004.0
1005.0
1009.0
1010.0
1009.0
1008.0
1003.0
1003.0
1002.0
1006.0
1008.0
1006.0
1003.0
1000.0
1000.0
1006.0
1006.0
1006.0
1004.0
1004.0
1008.0
1007.0
1005.0
1005.0
1002.0
1006.0
1007.0
1009.0
1009.0
1009.0
1007.0
1009.0
1010.0
1009.0
1010.0
1007.0
1002.0
1002.0
1005.0
1006.0
1007.0
1007.0
1003.0
1006.0
1009.0
1008.0
1008.0
1008.0
1005.0
1007.0
1011.0
1014.0
1013.0
1010.0
1007.0
1006.0
1008.0
1007.0
1008.0
1009.0
1009.0
1006.0
1011.0
1010.0
1009.0
1007.0
1007.0
1008.0
1013.0
1011.0
1010.0
1008.0
1001.0
1003.0
1011.0
1018.0
1015.0
1007.0
999.0
1002.0
1008.0
1017.0
1019.0
1017.0
1013.0
1010.0
1012.0
1009.0
1008.0
1011.0
1013.0
1012.0
1014.0
1019.0
1025.0
1021.0
1015.0
1014.0
1016.0
1019.0
1011.0
1012.0
1016.0
1020.0
1020.0
1020.0
1017.0
1013.0
1014.0
1017.0
1021.0
1019.0
1016.0
1015.0
1016.0
1019.0
1022.0
1023.0
1019.0
1014.0
1014.0
1016.0
1017.0
1020.0
1019.0
1019.0
1015.0
1015.0
1021.0
1021.0
1021.0
1018.0
1016.0
1018.0
1022.0
1028.0
1025.0
1022.0
1020.0
1023.0
1024.0
1026.0
1026.0
1024.0
1026.0
1022.0
1025.0
1027.0
1025.0
1022.0
1021.0
1020.0
1023.0
1026.0
1024.0
1025.0
1025.0
1026.0
1031.0
1031.0
1030.0
1032.0
1028.0
1025.0
1023.0
1027.0
1021.0
1020.0
1017.0
1017.0
1019.0
1019.0
1015.0
1012.0
1010.0
1014.0
1016.0
1021.0
1019.0
1018.0
1014.0
1016.0
1015.0
1018.0
1018.0
1014.0
1013.0
1011.0
1011.0
1014.0
1016.0
1017.0
1015.0
1014.0
1016.0
1018.0
1017.0
1017.0
1014.0
1020.0
1024.0
1031.0
1035.0
1042.0
1053.0
1063.0
1083.0
1100.0
1124.0
1154.0
1187.0
1228.0
1269.0
1311.0
1348.0
1385.0
1415.0
1453.0
1488.0
1522.0
1535.0
1528.0
1493.0
1428.0
1339.0
1250.0
1176.0
1122.0
1087.0
1068.0
1056.0
1044.0
1036.0
1028.0
1022.0
1018.0
1014.0
1012.0
1005.0
998.0
990.0
984.0
987.0
987.0
987.0
982.0
979.0
977.0
981.0
979.0
979.0
976.0
972.0
971.0
975.0
976.0
975.0
973.0
970.0
969.0
972.0
972.0
972.0
969.0
967.0
969.0
967.0
963.0
962.0
963.0
961.0
959.0
964.0
966.0
967.0
965.0
961.0
958.0
956.0
959.0
961.0
960.0
956.0
957.0
960.0
961.0
961.0
960.0
953.0
956.0
961.0
965.0
968.0
967.0
964.0
963.0
963.0
965.0
964.0
965.0
962.0
959.0
959.0
964.0
971.0
974.0
971.0
971.0
969.0
973.0
970.0
970.0
971.0
979.0
985.0
986.0
987.0
989.0
993.0
999.0
1008.0
1012.0
1014.0
1016.0
1020.0
1023.0
1030.0
1039.0
1044.0
1045.0
1047.0
1049.0
1054.0
1058.0
1058.0
1054.0
1053.0
1054.0
1058.0
1060.0
1059.0
1051.0
1046.0
1042.0
1043.0
1045.0
1045.0
1042.0
1040.0
1041.0
1041.0
1041.0
1038.0
1034.0
1031.0
1036.0
1037.0
1037.0
1036.0
1032.0
1028.0
1032.0
1034.0
1038.0
1037.0
1035.0
1031.0
1031.0
1035.0
1036.0
1032.0
1032.0
1029.0
1029.0
1033.0
1035.0
1033.0
1030.0
1030.0
1030.0
1031.0
1032.0
1030.0
1029.0
1028.0
1029.0
1031.0
1035.0
1034.0
1031.0
1027.0
1026.0
1023.0
1027.0
1028.0
1025.0
1026.0
1027.0
1031.0
1035.0
1035.0
1035.0
1029.0
1027.0
1030.0
1033.0
1032.0
1031.0
1029.0
1031.0
1033.0
1034.0
1035.0
1034.0
1029.0
1026.0
1027.0
1028.0
1031.0
1032.0
1029.0
1033.0
1035.0
1038.0
1033.0
1026.0
1021.0
1024.0
1030.0
1036.0
1037.0
1032.0
1028.0
1030.0
1034.0
1037.0
1036.0
1030.0
1029.0
1028.0
1032.0
1034.0
1034.0
1034.0
1032.0
1033.0
1036.0
1036.0
1033.0
1028.0
1031.0
1029.0
1029.0
1031.0
1029.0
1029.0
1027.0
1028.0
1031.0
1032.0
1031.0
1032.0
1030.0
1032.0
1035.0
1040.0
1037.0
1030.0
1027.0
1024.0
1031.0
1037.0
1037.0
1033.0
1032.0
1031.0
1036.0
1039.0
1039.0
1032.0
1029.0
1029.0
1034.0
1035.0
1034.0
1033.0
1032.0
1035.0
1035.0
1040.0
1037.0
1037.0
1032.0
1032.0
1033.0
1033.0
1033.0
1035.0
1034.0
1035.0
1034.0
1034.0
1038.0
1037.0
1036.0
1034.0
1037.0
1042.0
1037.0
1036.0
1031.0
1032.0
1038.0
1044.0
1045.0
1042.0
1042.0
1040.0
1043.0
1045.0
1047.0
1044.0
1045.0
1046.0
1050.0
1055.0
1056.0
1053.0
1051.0
1049.0
1052.0
1053.0
1049.0
1045.0
1041.0
1047.0
1053.0
1056.0
1058.0
1058.0
1056.0
1056.0
1056.0
1059.0
1056.0
1051.0
1046.0
1043.0
1046.0
1049.0
1050.0
1047.0
1043.0
1041.0
1043.0
1046.0
1045.0
1045.0
1043.0
1042.0
1045.0
1050.0
1048.0
1048.0
1046.0
1044.0
1046.0
1049.0
1051.0
1047.0
1044.0
1042.0
1044.0
1048.0
1049.0
1049.0
1050.0
1048.0
1049.0
1051.0
1054.0
1057.0
1060.0
1064.0
1074.0
1088.0
1108.0
1123.0
1136.0
1160.0
1192.0
1232.0
1270.0
1304.0
1341.0
1375.0
1407.0
1444.0
1479.0
1514.0
1529.0
1532.0
1517.0
1468.0
1387.0
1289.0
1207.0
1150.0
1112.0
1094.0
1079.0
1069.0
1057.0
1052.0
1051.0
1050.0
1044.0
1036.0
1027.0
1026.0
1027.0
1025.0
1024.0
1021.0
1014.0
1014.0
1011.0
1014.0
1015.0
1014.0
1012.0
1013.0
1013.0
1015.0
1013.0
1008.0
1009.0
1008.0
1010.0
1012.0
1010.0
1005.0
1002.0
1003.0
1007.0
1009.0
1008.0
1001.0
1001.0
999.0
1000.0
1002.0
1001.0
999.0
997.0
994.0
996.0
999.0
999.0
996.0
993.0
993.0
994.0
999.0
1001.0
998.0
996.0
991.0
991.0
997.0
995.0
995.0
993.0
986.0
990.0
992.0
994.0
992.0
986.0
988.0
989.0
994.0
991.0
993.0
993.0
994.0
998.0
999.0
1000.0
1001.0
1002.0
1005.0
1011.0
1017.0
1020.0
1020.0
1018.0
1024.0
1027.0
1036.0
1041.0
1043.0
1045.0
1049.0
1057.0
1065.0
1074.0
1078.0
1078.0
1079.0
1080.0
1081.0
1085.0
1085.0
1083.0
1081.0
1082.0
1083.0
1083.0
1077.0
1070.0
1068.0
1065.0
1065.0
1064.0
1061.0
1059.0
1058.0
1062.0
1065.0
1065.0
1065.0
1060.0
1058.0
1062.0
1063.0
1062.0
1062.0
1058.0
1055.0
1058.0
1057.0
1061.0
1059.0
1054.0
1051.0
1055.0
1059.0
1060.0
1057.0
1053.0
1054.0
1054.0
1054.0
1051.0
1051.0
1048.0
1049.0
1052.0
1055.0
1058.0
1056.0
1055.0
1054.0
1054.0
1054.0
1052.0
1047.0
1044.0
1044.0
1049.0
1050.0
1050.0
1048.0
1047.0
1049.0
1052.0
1056.0
1053.0
1052.0
1052.0
1052.0
1053.0
1056.0
1054.0
1053.0
1050.0
1054.0
1056.0
1060.0
1057.0
1051.0
1048.0
1050.0
1051.0
1053.0
1053.0
1051.0
1052.0
1053.0
1056.0
1057.0
1055.0
1055.0
1051.0
1050.0
1050.0
1056.0
1055.0
1055.0
1053.0
1052.0
1055.0
1056.0
1057.0
1056.0
1052.0
1053.0
1057.0
1059.0
1058.0
1055.0
1054.0
1054.0
1054.0
1053.0
1054.0
1052.0
1051.0
1051.0
1052.0
1054.0
1052.0
1050.0
1052.0
1053.0
1055.0
1059.0
1057.0
1055.0
1052.0
1052.0
1055.0
1055.0
1053.0
1052.0
1051.0
1052.0
1053.0
1056.0
1055.0
1053.0
1051.0
1055.0
1056.0
1059.0
1058.0
1055.0
1052.0
1055.0
1059.0
1060.0
1058.0
1053.0
1053.0
1051.0
1057.0
1056.0
1058.0
1056.0
1053.0
1054.0
1059.0
1061.0
1061.0
1058.0
1055.0
1055.0
1056.0
1060.0
1056.0
1055.0
1052.0
1053.0
1058.0
1062.0
1062.0
1061.0
1060.0
1062.0
1065.0
1069.0
1071.0
1069.0
1070.0
1070.0
1073.0
1072.0
1068.0
1064.0
1062.0
1064.0
1062.0
1066.0
1065.0
1064.0
1061.0
1064.0
1070.0
1071.0
1072.0
1072.0
1067.0
1067.0
1065.0
1066.0
1062.0
1059.0
1053.0
1055.0
1061.0
1062.0
1062.0
1059.0
1055.0
1052.0
1055.0
1055.0
1055.0
1055.0
1051.0
1054.0
1056.0
1061.0
1059.0
1054.0
1051.0
1050.0
1055.0
1054.0
1054.0
1050.0
1052.0
1052.0
1054.0
1057.0
1055.0
1052.0
1053.0
1054.0
1063.0
1072.0
1076.0
1083.0
1093.0
1110.0
1128.0
1147.0
1173.0
1209.0
1245.0
1285.0
1328.0
1367.0
1398.0
1429.0
1461.0
1500.0
1528.0
1535.0
1519.0
1470.0
1381.0
1282.0
1199.0
1148.0
1110.0
1085.0
1072.0
1059.0
1057.0
1053.0
1048.0
1041.0
1032.0
1029.0
1028.0
1025.0
1016.0
1009.0
1008.0
1009.0
1009.0
1010.0
1008.0
1006.0
1002.0
1002.0
1004.0
1003.0
1004.0
1000.0
999.0
998.0
1000.0
1002.0
999.0
995.0
992.0
995.0
996.0
994.0
992.0
994.0
992.0
991.0
989.0
991.0
990.0
989.0
988.0
988.0
990.0
988.0
987.0
984.0
983.0
986.0
984.0
988.0
982.0
981.0
978.0
982.0
988.0
988.0
988.0
984.0
981.0
980.0
980.0
984.0
983.0
985.0
981.0
979.0
980.0
984.0
984.0
982.0
979.0
982.0
986.0
988.0
989.0
986.0
983.0
985.0
990.0
997.0
1001.0
1003.0
1005.0
1006.0
1008.0
1016.0
1021.0
1023.0
1025.0
1029.0
1033.0
1042.0
1043.0
1047.0
1049.0
1055.0
1063.0
1066.0
1065.0
1065.0
1061.0
1061.0
1061.0
1061.0
1063.0
1065.0
1059.0
1057.0
1058.0
1058.0
1056.0
1051.0
1048.0
1048.0
1048.0
1052.0
1047.0
1045.0
1040.0
1041.0
1042.0
1046.0
1046.0
1044.0
1042.0
1042.0
1040.0
1044.0
1042.0
1042.0
1035.0
1037.0
1036.0
1042.0
1043.0
1041.0
1034.0
1030.0
1035.0
1041.0
1040.0
1039.0
1037.0
1038.0
1037.0
1036.0
1032.0
1029.0
1026.0
1029.0
1033.0
1036.0
1034.0
1032.0
1027.0
1030.0
1035.0
1039.0
1034.0
1032.0
1029.0
1029.0
1033.0
1037.0
1037.0
1036.0
1034.0
1036.0
1037.0
1040.0
1039.0
1039.0
1038.0
1038.0
1039.0
1035.0
1030.0
1029.0
1030.0
1031.0
1039.0
1043.0
1038.0
1037.0
1032.0
1030.0
1031.0
1033.0
1034.0
1034.0
1032.0
1033.0
1040.0
1041.0
1040.0
1030.0
1025.0
1025.0
1030.0
1034.0
1034.0
1030.0
1029.0
1029.0
1035.0
1036.0
1035.0
1032.0
1030.0
1029.0
1034.0
1033.0
1034.0
1033.0
1033.0
1034.0
1037.0
1044.0
1041.0
1033.0
1027.0
1031.0
1037.0
1041.0
1039.0
1032.0
1027.0
1029.0
1033.0
1031.0
1027.0
1025.0
1026.0
1029.0
1034.0
1035.0
1033.0
1032.0
1027.0
1029.0
1032.0
1032.0
1027.0
1026.0
1027.0
1031.0
1036.0
1034.0
1031.0
1031.0
1026.0
1027.0
1032.0
1039.0
1037.0
1033.0
1030.0
1031.0
1036.0
1032.0
1024.0
1022.0
1027.0
1033.0
1038.0
1039.0
1037.0
1038.0
1040.0
1040.0
1044.0
1046.0
1048.0
1049.0
1049.0
1050.0
1044.0
1035.0
1028.0
1028.0
1035.0
1041.0
1045.0
1047.0
1041.0
1037.0
1034.0
1039.0
1045.0
1049.0
1048.0
1043.0
1039.0
1039.0
1037.0
1033.0
1032.0
1031.0
1033.0
1036.0
1040.0
1037.0
1028.0
1024.0
1027.0
1030.0
1031.0
1033.0
1035.0
1032.0
1029.0
1029.0
1035.0
1039.0
1036.0
1027.0
1021.0
1022.0
1031.0
1042.0
1043.0
1037.0
1033.0
1030.0
1038.0
1049.0
1053.0
1053.0
1062.0
1080.0
1101.0
1117.0
1133.0
1154.0
1188.0
1236.0
1282.0
1322.0
1354.0
1382.0
1421.0
1462.0
1507.0
1525.0
1515.0
1469.0
1388.0
1290.0
1205.0
1145.0
1099.0
1070.0
1056.0
1051.0
1049.0
1043.0
1035.0
1028.0
1019.0
1013.0
1015.0
1016.0
1012.0
1006.0
1002.0
1000.0
1008.0
1010.0
1005.0
993.0
991.0
993.0
996.0
1001.0
994.0
986.0
984.0
984.0
992.0
999.0
996.0
993.0
986.0
985.0
988.0
991.0
991.0
985.0
980.0
978.0
981.0
989.0
990.0
981.0
977.0
972.0
977.0
982.0
984.0
981.0
974.0
977.0
982.0
985.0
983.0
979.0
972.0
978.0
987.0
990.0
982.0
975.0
967.0
971.0
975.0
980.0
982.0
985.0
986.0
985.0
981.0
979.0
980.0
983.0
984.0
984.0
981.0
983.0
986.0
990.0
991.0
988.0
987.0
991.0
991.0
1000.0
1003.0
1008.0
1011.0
1013.0
1017.0
1024.0
1023.0
1022.0
1030.0
1044.0
1055.0
1059.0
1056.0
1053.0
1051.0
1054.0
1057.0
1061.0
1057.0
1054.0
1054.0
1063.0
1061.0
1053.0
1040.0
1036.0
1041.0
1052.0
1051.0
1043.0
1036.0
1038.0
1048.0
1051.0
1046.0
1037.0
1031.0
1033.0
1038.0
1042.0
1038.0
1034.0
1029.0
1030.0
1031.0
1037.0
1038.0
1031.0
1032.0
1033.0
1038.0
1041.0
1038.0
1035.0
1031.0
1031.0
1030.0
1031.0
1029.0
1029.0
1028.0
1031.0
1033.0
1032.0
1029.0
1027.0
1030.0
1037.0
1038.0
1033.0
1029.0
1031.0
1027.0
1029.0
1034.0
1041.0
1036.0
1035.0
1034.0
1034.0
1031.0
1032.0
1033.0
1033.0
1031.0
1040.0
1039.0
1038.0
1031.0
1027.0
1027.0
1035.0
1045.0
1044.0
1036.0
1032.0
1038.0
1041.0
1043.0
1043.0
1041.0
1036.0
1036.0
1039.0
1038.0
1038.0
1039.0
1038.0
1036.0
1037.0
1040.0
1050.0
1054.0
1051.0
1041.0
1033.0
1036.0
1048.0
1051.0
1046.0
1037.0
1036.0
1045.0
1050.0
1046.0
1038.0
1034.0
1038.0
1045.0
1046.0
1045.0
1045.0
1044.0
1042.0
1039.0
1041.0
1041.0
1044.0
1048.0
1051.0
1056.0
1055.0
1046.0
1042.0
1038.0
1035.0
1039.0
1047.0
1049.0
1047.0
1043.0
1044.0
1048.0
1047.0
1047.0
1045.0
1045.0
1043.0
1046.0
1055.0
1056.0
1047.0
1035.0
1035.0
1045.0
1055.0
1056.0
1051.0
1045.0
1046.0
1049.0
1047.0
1052.0
1052.0
1052.0
1052.0
1050.0
1047.0
1049.0
1050.0
1051.0
1046.0
1051.0
1061.0
1062.0
1057.0
1047.0
1049.0
1056.0
1059.0
1060.0
1058.0
1058.0
1063.0
1067.0
1067.0
1065.0
1061.0
1056.0
1051.0
1047.0
1052.0
1057.0
1057.0
1052.0
1057.0
1063.0
1069.0
1068.0
1065.0
1059.0
1058.0
1058.0
1061.0
1062.0
1057.0
1053.0
1048.0
1051.0
1057.0
1055.0
1049.0
1051.0
1058.0
1059.0
1055.0
1053.0
1050.0
1049.0
1049.0
1053.0
1057.0
1054.0
1052.0
1054.0
1058.0
1057.0
1049.0
1046.0
1046.0
1041.0
1043.0
1050.0
1061.0
1058.0
1053.0
1057.0
1062.0
1064.0
1063.0
1069.0
1078.0
1092.0
1106.0
1124.0
1139.0
1163.0
1202.0
1246.0
1295.0
1336.0
1365.0
1392.0
1427.0
1471.0
1509.0
1520.0
1503.0
1450.0
1358.0
1255.0
1178.0
1127.0
1091.0
1076.0
1069.0
1057.0
1050.0
1054.0
1053.0
1045.0
1040.0
1038.0
1033.0
1025.0
1023.0
1027.0
1030.0
1029.0
1025.0
1015.0
1014.0
1018.0
1020.0
1024.0
1021.0
1013.0
1008.0
1009.0
1011.0
1013.0
1011.0
1015.0
1017.0
1018.0
1009.0
1004.0
1002.0
1004.0
1003.0
1008.0
1008.0
1008.0
1006.0
1005.0
1006.0
1003.0
1001.0
1003.0
1003.0
1001.0
1003.0
1008.0
1009.0
1004.0
999.0
992.0
989.0
994.0
996.0
999.0
1002.0
1002.0
1001.0
1002.0
1002.0
999.0
996.0
998.0
1010.0
1015.0
1012.0
1004.0
1003.0
1013.0
1023.0
1030.0
1026.0
1022.0
1029.0
1037.0
1050.0
1054.0
1053.0
1051.0
1054.0
1060.0
1061.0
1062.0
1063.0
1065.0
1069.0
1065.0
1067.0
1060.0
1055.0
1058.0
1058.0
1061.0
1062.0
1057.0
1046.0
1045.0
1053.0
1054.0
1054.0
1049.0
1050.0
1050.0
1050.0
1055.0
1055.0
1049.0
1046.0
1049.0
1049.0
1048.0
1046.0
1041.0
1030.0
1018.0
1023.0
1037.0
1046.0
1045.0
1041.0
1038.0
1038.0
1036.0
1034.0
1031.0
1033.0
1037.0
1044.0
1046.0
1042.0
1032.0
1029.0
1031.0
1038.0
1040.0
1034.0
1031.0
1029.0
1031.0
1037.0
1039.0
1036.0
1032.0
1029.0
1033.0
1036.0
1037.0
1033.0
1032.0
1035.0
1036.0
1039.0
1037.0
1037.0
1027.0
1016.0
1017.0
1031.0
1042.0
1046.0
1046.0
1041.0
1037.0
1032.0
1029.0
1030.0
1033.0
1033.0
1033.0
1032.0
1035.0
1035.0
1036.0
1036.0
1028.0
1024.0
1027.0
1031.0
1034.0
1028.0
1024.0
1023.0
1025.0
1027.0
1023.0
1024.0
1028.0
1031.0
1029.0
1027.0
1027.0
1029.0
1034.0
1034.0
1032.0
1028.0
1031.0
1032.0
1030.0
1026.0
1025.0
1024.0
1021.0
1023.0
1030.0
1034.0
1034.0
1032.0
1029.0
1031.0
1033.0
1034.0
1031.0
1022.0
1016.0
1018.0
1018.0
1022.0
1024.0
1027.0
1028.0
1027.0
1033.0
1033.0
1031.0
1025.0
1020.0
1019.0
1023.0
1028.0
1030.0
1027.0
1021.0
1020.0
1024.0
1030.0
1030.0
1023.0
1019.0
1025.0
1030.0
1030.0
1030.0
1023.0
1026.0
1028.0
1027.0
1031.0
1031.0
1031.0
1023.0
1016.0
1018.0
1022.0
1027.0
1027.0
1026.0
1026.0
1031.0
1035.0
1038.0
1037.0
1032.0
1030.0
1030.0
1034.0
1037.0
1034.0
1033.0
1037.0
1044.0
1053.0
1051.0
1044.0
1039.0
1038.0
1041.0
1037.0
1031.0
1031.0
1036.0
1040.0
1042.0
1043.0
1042.0
1044.0
1047.0
1044.0
1043.0
1043.0
1040.0
1034.0
1030.0
1027.0
1027.0
1028.0
1029.0
1028.0
1025.0
1025.0
1027.0
1029.0
1034.0
1035.0
1035.0
1033.0
1025.0
1025.0
1025.0
1030.0
1033.0
1039.0
1041.0
1038.0
1035.0
1035.0
1031.0
1029.0
1031.0
1033.0
1038.0
1038.0
1035.0
1029.0
1025.0
1030.0
1039.0
1052.0
1059.0
1060.0
1070.0
1089.0
1108.0
1122.0
1139.0
1163.0
1198.0
1240.0
1282.0
1318.0
1348.0
1377.0
1400.0
1439.0
1474.0
1497.0
1497.0
1468.0
1417.0
1336.0
1259.0
1200.0
1147.0
1107.0
1079.0
1066.0
1061.0
1058.0
1052.0
1045.0
1039.0
1032.0
1026.0
1022.0
1018.0
1010.0
1000.0
1000.0
1004.0
1005.0
1002.0
998.0
997.0
997.0
1001.0
1004.0
1005.0
1001.0
992.0
992.0
992.0
995.0
997.0
996.0
997.0
992.0
994.0
993.0
993.0
992.0
988.0
986.0
985.0
987.0
990.0
989.0
988.0
989.0
988.0
986.0
985.0
985.0
984.0
987.0
989.0
990.0
990.0
984.0
979.0
977.0
981.0
983.0
987.0
986.0
983.0
991.0
993.0
986.0
979.0
976.0
972.0
974.0
975.0
974.0
976.0
973.0
976.0
978.0
979.0
980.0
978.0
976.0
972.0
971.0
975.0
980.0
980.0
974.0
970.0
971.0
981.0
986.0
985.0
981.0
974.0
971.0
975.0
979.0
984.0
986.0
986.0
984.0
983.0
989.0
992.0
997.0
1001.0
1006.0
1011.0
1011.0
1011.0
1012.0
1016.0
1020.0
1029.0
1035.0
1038.0
1040.0
1042.0
1044.0
1047.0
1051.0
1046.0
1044.0
1039.0
1047.0
1049.0
1051.0
1046.0
1045.0
1048.0
1050.0
1053.0
1053.0
1047.0
1042.0
1043.0
1044.0
1049.0
1049.0
1043.0
1038.0
1036.0
1041.0
