# Simple Text Format
# Sampling Rate (Hz):= 360.00
# Resolution:= 12
# Labels:= ECG
969.0
967.0
964.0
963.0
964.0
969.0
965.0
962.0
958.0
958.0
963.0
969.0
968.0
965.0
961.0
960.0
960.0
967.0
965.0
965.0
960.0
960.0
961.0
963.0
961.0
960.0
960.0
960.0
962.0
965.0
966.0
963.0
958.0
959.0
962.0
964.0
967.0
967.0
967.0
968.0
973.0
979.0
977.0
981.0
980.0
985.0
993.0
1003.0
1003.0
1007.0
1008.0
1011.0
1019.0
1028.0
1032.0
1031.0
1033.0
1035.0
1038.0
1043.0
1043.0
1041.0
1036.0
1036.0
1039.0
1042.0
1038.0
1035.0
1030.0
1029.0
1030.0
1033.0
1030.0
1026.0
1024.0
1022.0
1026.0
1025.0
1026.0
1022.0
1019.0
1022.0
1019.0
1022.0
1022.0
1021.0
1020.0
1022.0
1024.0
1024.0
1022.0
1019.0
1016.0
1018.0
1021.0
1024.0
1022.0
1019.0
1017.0
1015.0
1019.0
1018.0
1014.0
1013.0
1010.0
1013.0
1016.0
1016.0
1017.0
1016.0
1013.0
1013.0
1014.0
1016.0
1016.0
1013.0
1011.0
1012.0
1014.0
1016.0
1017.0
1014.0
1010.0
1012.0
1013.0
1018.0
1018.0
1016.0
1012.0
1011.0
1014.0
1012.0
1015.0
1013.0
1010.0
1014.0
1018.0
1017.0
1016.0
1010.0
1005.0
1008.0
1012.0
1012.0
1012.0
1012.0
1012.0
1013.0
1013.0
1015.0
1015.0
1012.0
1006.0
1008.0
1011.0
1014.0
1014.0
1014.0
1012.0
1010.0
1011.0
1012.0
1012.0
1011.0
1009.0
1010.0
1012.0
1016.0
1018.0
1012.0
1009.0
1010.0
1013.0
1017.0
1016.0
1012.0
1006.0
1008.0
1012.0
1017.0
1018.0
1015.0
1010.0
1010.0
1012.0
1016.0
1015.0
1013.0
1010.0
1013.0
1016.0
1019.0
1016.0
1017.0
1013.0
1013.0
1018.0
1023.0
1020.0
1018.0
1013.0
1016.0
1020.0
1021.0
1020.0
1018.0
1014.0
1018.0
1018.0
1023.0
1022.0
1019.0
1019.0
1020.0
1022.0
1024.0
1024.0
1022.0
1017.0
1015.0
1021.0
1023.0
1023.0
1019.0
1015.0
1015.0
1023.0
1027.0
1031.0
1029.0
1027.0
1027.0
1031.0
1036.0
1038.0
1037.0
1032.0
1028.0
1032.0
1033.0
1031.0
1032.0
1028.0
1032.0
1035.0
1037.0
1039.0
1040.0
1037.0
1033.0
1033.0
1031.0
1027.0
1024.0
1023.0
1023.0
1025.0
1029.0
1028.0
1025.0
1026.0
1023.0
1027.0
1029.0
1028.0
1022.0
1020.0
1020.0
1022.0
1026.0
1026.0
1023.0
1022.0
1024.0
1027.0
1027.0
1026.0
1025.0
1025.0
1026.0
1031.0
1039.0
1043.0
1047.0
1057.0
1072.0
1093.0
1110.0
1127.0
1153.0
1187.0
1233.0
1278.0
1321.0
1360.0
1390.0
1421.0
1456.0
1497.0
1529.0
1539.0
1527.0
1483.0
1407.0
1307.0
1219.0
1156.0
1109.0
1078.0
1060.0
1050.0
1043.0
1035.0
1028.0
1023.0
1017.0
1015.0
1012.0
1007.0
1002.0
997.0
997.0
997.0
995.0
995.0
992.0
991.0
990.0
992.0
989.0
988.0
986.0
983.0
983.0
987.0
988.0
989.0
987.0
982.0
980.0
980.0
985.0
985.0
982.0
979.0
983.0
986.0
984.0
979.0
974.0
972.0
975.0
976.0
980.0
978.0
975.0
972.0
973.0
973.0
974.0
971.0
970.0
967.0
967.0
966.0
971.0
973.0
970.0
966.0
963.0
965.0
970.0
971.0
966.0
963.0
965.0
968.0
971.0
969.0
968.0
966.0
963.0
968.0
970.0
968.0
968.0
970.0
973.0
979.0
987.0
985.0
989.0
990.0
997.0
1003.0
1006.0
1008.0
1013.0
1017.0
1023.0
1031.0
1036.0
1036.0
1040.0
1044.0
1047.0
1048.0
1052.0
1054.0
1054.0
1050.0
1047.0
1048.0
1049.0
1047.0
1048.0
1046.0
1043.0
1042.0
1041.0
1037.0
1033.0
1032.0
1032.0
1037.0
1035.0
1033.0
1031.0
1028.0
1031.0
1032.0
1034.0
1032.0
1029.0
1026.0
1026.0
1028.0
1030.0
1029.0
1030.0
1032.0
1031.0
1031.0
1029.0
1027.0
1028.0
1027.0
1027.0
1028.0
1027.0
1025.0
1024.0
1019.0
1020.0
1022.0
1025.0
1024.0
1022.0
1020.0
1020.0
1022.0
1027.0
1023.0
1021.0
1021.0
1020.0
1022.0
1023.0
1024.0
1023.0
1019.0
1021.0
1021.0
1022.0
1020.0
1019.0
1016.0
1012.0
1010.0
1013.0
1019.0
1019.0
1018.0
1018.0
1020.0
1022.0
1021.0
1021.0
1021.0
1020.0
1023.0
1022.0
1018.0
1015.0
1015.0
1016.0
1018.0
1020.0
1019.0
1019.0
1014.0
1017.0
1020.0
1021.0
1019.0
1020.0
1014.0
1015.0
1016.0
1020.0
1020.0
1018.0
1016.0
1015.0
1014.0
1017.0
1018.0
1015.0
1016.0
1017.0
1018.0
1022.0
1024.0
1018.0
1013.0
1018.0
1022.0
1029.0
1030.0
1024.0
1018.0
1016.0
1016.0
1019.0
1017.0
1014.0
1014.0
1014.0
1018.0
1019.0
1020.0
1018.0
1017.0
1016.0
1019.0
1021.0
1016.0
1012.0
1012.0
1013.0
1015.0
1017.0
1017.0
1016.0
1013.0
1014.0
1017.0
1020.0
1019.0
1018.0
1017.0
1016.0
1022.0
1024.0
1024.0
1019.0
1017.0
1023.0
1027.0
1031.0
1029.0
1026.0
1021.0
1019.0
1021.0
1026.0
1031.0
1029.0
1023.0
1019.0
1017.0
1020.0
1021.0
1023.0
1026.0
1028.0
1029.0
1031.0
1027.0
1027.0
1024.0
1019.0
1022.0
1027.0
1028.0
1028.0
1028.0
1034.0
1037.0
1043.0
1041.0
1035.0
1032.0
1034.0
1038.0
1042.0
1039.0
1036.0
1031.0
1032.0
1036.0
1040.0
1042.0
1038.0
1031.0
1032.0
1035.0
1042.0
1041.0
1041.0
1038.0
1042.0
1044.0
1046.0
1038.0
1027.0
1020.0
1018.0
1024.0
1031.0
1028.0
1027.0
1025.0
1026.0
1029.0
1032.0
1031.0
1033.0
1030.0
1030.0
1030.0
1033.0
1029.0
1029.0
1029.0
1028.0
1030.0
1031.0
1031.0
1030.0
1028.0
1029.0
1031.0
1037.0
1036.0
1035.0
1027.0
1027.0
1033.0
1041.0
1049.0
1055.0
1057.0
1066.0
1083.0
1101.0
1117.0
1135.0
1162.0
1200.0
1244.0
1289.0
1333.0
1370.0
1400.0
1432.0
1465.0
1499.0
1529.0
1541.0
1533.0
1496.0
1426.0
1336.0
1248.0
1177.0
1126.0
1095.0
1075.0
1059.0
1053.0
1045.0
1038.0
1036.0
1036.0
1032.0
1028.0
1018.0
1011.0
1005.0
1006.0
1008.0
1008.0
1008.0
1002.0
997.0
997.0
1000.0
997.0
993.0
990.0
990.0
992.0
994.0
994.0
990.0
988.0
988.0
990.0
991.0
991.0
989.0
988.0
988.0
987.0
989.0
988.0
986.0
987.0
985.0
988.0
991.0
986.0
985.0
980.0
980.0
985.0
986.0
983.0
982.0
982.0
983.0
988.0
992.0
988.0
981.0
981.0
979.0
980.0
985.0
983.0
980.0
975.0
975.0
979.0
983.0
983.0
977.0
976.0
976.0
976.0
978.0
977.0
978.0
973.0
978.0
982.0
984.0
983.0
981.0
977.0
976.0
981.0
987.0
987.0
990.0
990.0
997.0
1003.0
1003.0
1002.0
1003.0
1006.0
1005.0
1010.0
1014.0
1015.0
1017.0
1018.0
1027.0
1037.0
1044.0
1050.0
1049.0
1046.0
1050.0
1057.0
1064.0
1066.0
1067.0
1066.0
1068.0
1068.0
1068.0
1064.0
1060.0
1053.0
1053.0
1057.0
1060.0
1057.0
1049.0
1044.0
1043.0
1042.0
1048.0
1047.0
1045.0
1042.0
1040.0
1043.0
1043.0
1041.0
1038.0
1036.0
1036.0
1036.0
1040.0
1044.0
1044.0
1040.0
1041.0
1040.0
1040.0
1042.0
1041.0
1037.0
1037.0
1037.0
1042.0
1039.0
1038.0
1036.0
1034.0
1037.0
1039.0
1039.0
1035.0
1033.0
1034.0
1037.0
1039.0
1039.0
1035.0
1031.0
1035.0
1035.0
1038.0
1038.0
1038.0
1033.0
1028.0
1028.0
1028.0
1028.0
1031.0
1031.0
1032.0
1037.0
1035.0
1031.0
1024.0
1023.0
1026.0
1032.0
1036.0
1032.0
1029.0
1025.0
1026.0
1035.0
1043.0
1043.0
1038.0
1036.0
1038.0
1044.0
1042.0
1038.0
1032.0
1027.0
1029.0
1032.0
1035.0
1034.0
1034.0
1033.0
1033.0
1033.0
1037.0
1035.0
1035.0
1033.0
1036.0
1039.0
1044.0
1046.0
1044.0
1039.0
1036.0
1032.0
1035.0
1034.0
1031.0
1032.0
1035.0
1046.0
1048.0
1046.0
1038.0
1031.0
1026.0
1029.0
1036.0
1035.0
1033.0
1030.0
1037.0
1042.0
1044.0
1044.0
1041.0
1035.0
1031.0
1029.0
1035.0
1040.0
1039.0
1036.0
1035.0
1032.0
1033.0
1034.0
1033.0
1030.0
1034.0
1036.0
1040.0
1039.0
1037.0
1036.0
1037.0
1041.0
1042.0
1040.0
1036.0
1031.0
1033.0
1034.0
1038.0
1037.0
1036.0
1032.0
1033.0
1028.0
1027.0
1029.0
1032.0
1034.0
1034.0
1038.0
1040.0
1039.0
1034.0
1034.0
1031.0
1033.0
1040.0
1037.0
1035.0
1036.0
1033.0
1037.0
1039.0
1036.0
1036.0
1035.0
1039.0
1043.0
1048.0
1045.0
1038.0
1038.0
1045.0
1054.0
1054.0
1052.0
1044.0
1038.0
1038.0
1040.0
1044.0
1043.0
1042.0
1043.0
1045.0
1052.0
1055.0
1053.0
1046.0
1042.0
1045.0
1048.0
1048.0
1046.0
1042.0
1034.0
1030.0
1034.0
1041.0
1042.0
1038.0
1036.0
1032.0
1032.0
1032.0
1033.0
1034.0
1032.0
1030.0
1031.0
1032.0
1033.0
1029.0
1025.0
1025.0
1033.0
1038.0
1037.0
1031.0
1026.0
1027.0
1029.0
1035.0
1036.0
1033.0
1031.0
1037.0
1042.0
1049.0
1055.0
1061.0
1070.0
1087.0
1106.0
1129.0
1148.0
1175.0
1211.0
1251.0
1300.0
1343.0
1380.0
1412.0
1441.0
1477.0
1514.0
1540.0
1548.0
1534.0
1493.0
1422.0
1331.0
1249.0
1181.0
1126.0
1094.0
1074.0
1066.0
1059.0
1052.0
1045.0
1033.0
1030.0
1025.0
1024.0
1022.0
1017.0
1013.0
1008.0
1007.0
1008.0
1001.0
995.0
990.0
988.0
989.0
989.0
989.0
990.0
989.0
990.0
993.0
993.0
990.0
986.0
985.0
985.0
987.0
989.0
988.0
983.0
978.0
985.0
989.0
988.0
984.0
979.0
976.0
976.0
978.0
983.0
985.0
984.0
978.0
974.0
971.0
975.0
974.0
972.0
970.0
969.0
972.0
977.0
980.0
976.0
974.0
974.0
973.0
977.0
975.0
969.0
966.0
970.0
972.0
974.0
970.0
966.0
967.0
969.0
971.0
974.0
973.0
971.0
969.0
966.0
974.0
978.0
982.0
978.0
981.0
982.0
987.0
991.0
995.0
996.0
1000.0
1005.0
1011.0
1015.0
1013.0
1012.0
1017.0
1029.0
1043.0
1052.0
1053.0
1052.0
1049.0
1054.0
1061.0
1068.0
1067.0
1066.0
1066.0
1067.0
1067.0
1067.0
1060.0
1057.0
1053.0
1059.0
1060.0
1058.0
1050.0
1044.0
1041.0
1045.0
1051.0
1052.0
1048.0
1047.0
1043.0
1037.0
1037.0
1037.0
1041.0
1037.0
1035.0
1036.0
1037.0
1040.0
1039.0
1040.0
1035.0
1038.0
1039.0
1041.0
1039.0
1038.0
1038.0
1038.0
1038.0
1038.0
1035.0
1035.0
1034.0
1036.0
1038.0
1039.0
1035.0
1030.0
1032.0
1031.0
1033.0
1034.0
1033.0
1032.0
1031.0
1028.0
1024.0
1024.0
1025.0
1025.0
1025.0
1028.0
1034.0
1037.0
1034.0
1026.0
1019.0
1021.0
1028.0
1032.0
1032.0
1024.0
1027.0
1028.0
1032.0
1035.0
1033.0
1028.0
1027.0
1030.0
1034.0
1035.0
1030.0
1027.0
1028.0
1031.0
1037.0
1041.0
1037.0
1031.0
1023.0
1024.0
1029.0
1036.0
1038.0
1032.0
1033.0
1034.0
1035.0
1038.0
1032.0
1030.0
1030.0
1031.0
1034.0
1040.0
1037.0
1033.0
1029.0
1030.0
1033.0
1035.0
1034.0
1034.0
1032.0
1033.0
1036.0
1038.0
1037.0
1033.0
1033.0
1033.0
1031.0
1034.0
1035.0
1032.0
1034.0
1037.0
1037.0
1034.0
1034.0
1035.0
1036.0
1033.0
1032.0
1033.0
1034.0
1031.0
1030.0
1033.0
1032.0
1034.0
1034.0
1033.0
1034.0
1035.0
1033.0
1036.0
1032.0
1033.0
1032.0
1034.0
1033.0
1036.0
1037.0
1038.0
1033.0
1036.0
1039.0
1038.0
1036.0
1037.0
1033.0
1029.0
1030.0
1034.0
1036.0
1036.0
1036.0
1039.0
1041.0
1042.0
1043.0
1042.0
1042.0
1042.0
1049.0
1052.0
1056.0
1054.0
1049.0
1046.0
1042.0
1044.0
1042.0
1044.0
1044.0
1048.0
1051.0
1055.0
1055.0
1052.0
1048.0
1049.0
1051.0
1056.0
1053.0
1043.0
1036.0
1036.0
1036.0
1040.0
1043.0
1041.0
1038.0
1035.0
1039.0
1040.0
1038.0
1037.0
1037.0
1038.0
1042.0
1045.0
1039.0
1034.0
1033.0
1043.0
1048.0
1043.0
1039.0
1040.0
1042.0
1042.0
1046.0
1051.0
1055.0
1060.0
1066.0
1077.0
1098.0
1121.0
1143.0
1168.0
1199.0
1243.0
1286.0
1327.0
1365.0
1399.0
1430.0
1463.0
1495.0
1530.0
1553.0
1557.0
1547.0
1517.0
1454.0
1364.0
1273.0
1205.0
1155.0
1124.0
1100.0
1086.0
1070.0
1056.0
1047.0
1045.0
1041.0
1038.0
1031.0
1027.0
1023.0
1023.0
1021.0
1019.0
1015.0
1009.0
1009.0
1007.0
1007.0
1006.0
1003.0
1001.0
1004.0
1005.0
1009.0
1011.0
1005.0
996.0
994.0
997.0
1000.0
1002.0
1000.0
995.0
991.0
994.0
996.0
999.0
998.0
992.0
987.0
987.0
987.0
987.0
989.0
987.0
987.0
989.0
990.0
990.0
987.0
982.0
980.0
982.0
987.0
989.0
989.0
988.0
988.0
990.0
988.0
982.0
974.0
968.0
970.0
981.0
988.0
990.0
985.0
977.0
976.0
980.0
986.0
984.0
979.0
973.0
976.0
984.0
989.0
994.0
990.0
987.0
990.0
997.0
1000.0
1001.0
999.0
1003.0
1004.0
1010.0
1016.0
1023.0
1023.0
1021.0
1022.0
1032.0
1043.0
1051.0
1053.0
1051.0
1056.0
1068.0
1074.0
1075.0
1069.0
1066.0
1065.0
1071.0
1074.0
1073.0
1066.0
1063.0
1063.0
1062.0
1063.0
1062.0
1059.0
1055.0
1053.0
1057.0
1059.0
1058.0
1055.0
1050.0
1048.0
1051.0
1052.0
1047.0
1039.0
1038.0
1038.0
1042.0
1045.0
1048.0
1048.0
1045.0
1041.0
1040.0
1040.0
1042.0
1040.0
1040.0
1043.0
1043.0
1042.0
1041.0
1043.0
1041.0
1039.0
1036.0
1038.0
1039.0
1040.0
1038.0
1038.0
1039.0
1038.0
1033.0
1032.0
1034.0
1033.0
1035.0
1035.0
1037.0
1033.0
1027.0
1028.0
1029.0
1030.0
1032.0
1033.0
1031.0
1031.0
1034.0
1035.0
1038.0
1033.0
1030.0
1031.0
1035.0
1042.0
1037.0
1032.0
1026.0
1028.0
1032.0
1035.0
1035.0
1034.0
1032.0
1030.0
1031.0
1034.0
1039.0
1037.0
1033.0
1027.0
1026.0
1032.0
1034.0
1032.0
1030.0
1028.0
1033.0
1038.0
1040.0
1035.0
1033.0
1029.0
1030.0
1032.0
1036.0
1039.0
1035.0
1032.0
1035.0
1039.0
1045.0
1040.0
1036.0
1031.0
1036.0
1037.0
1038.0
1037.0
1034.0
1033.0
1035.0
1037.0
1035.0
1031.0
1032.0
1033.0
1034.0
1036.0
1035.0
1038.0
1034.0
1034.0
1037.0
1039.0
1041.0
1041.0
1037.0
1034.0
1034.0
1034.0
1035.0
1034.0
1037.0
1034.0
1040.0
1042.0
1044.0
1038.0
1032.0
1030.0
1034.0
1039.0
1040.0
1040.0
1036.0
1036.0
1037.0
1041.0
1041.0
1042.0
1039.0
1041.0
1039.0
1043.0
1041.0
1038.0
1042.0
1041.0
1043.0
1042.0
1043.0
1042.0
1041.0
1040.0
1042.0
1045.0
1046.0
1044.0
1036.0
1034.0
1035.0
1043.0
1049.0
1048.0
1046.0
1045.0
1049.0
1050.0
1050.0
1048.0
1052.0
1057.0
1060.0
1061.0
1053.0
1049.0
1045.0
1048.0
1051.0
1055.0
1054.0
1050.0
1050.0
1048.0
1047.0
1050.0
1053.0
1055.0
1050.0
1045.0
1049.0
1045.0
1044.0
1042.0
1041.0
1041.0
1039.0
1038.0
1032.0
1032.0
1033.0
1036.0
1039.0
1039.0
1039.0
1035.0
1032.0
1033.0
1036.0
1035.0
1035.0
1033.0
1032.0
1032.0
1032.0
1038.0
1041.0
1042.0
1045.0
1045.0
1047.0
1042.0
1034.0
1035.0
1033.0
1038.0
1046.0
1057.0
1070.0
1084.0
1100.0
1116.0
1138.0
1164.0
1202.0
1249.0
1301.0
1346.0
1388.0
1427.0
1472.0
1512.0
1545.0
1554.0
1541.0
1498.0
1418.0
1316.0
1228.0
1163.0
1116.0
1091.0
1078.0
1057.0
1036.0
1031.0
1033.0
1036.0
1031.0
1015.0
1005.0
1006.0
1008.0
1004.0
993.0
989.0
987.0
989.0
990.0
996.0
1002.0
999.0
992.0
986.0
983.0
986.0
988.0
986.0
979.0
982.0
986.0
986.0
982.0
979.0
975.0
974.0
975.0
981.0
983.0
981.0
973.0
972.0
979.0
980.0
974.0
968.0
969.0
973.0
978.0
979.0
977.0
977.0
976.0
973.0
972.0
971.0
974.0
972.0
973.0
969.0
967.0
971.0
971.0
972.0
974.0
971.0
972.0
971.0
972.0
969.0
967.0
971.0
973.0
975.0
973.0
973.0
973.0
978.0
979.0
983.0
989.0
995.0
998.0
1000.0
1007.0
1009.0
1014.0
1023.0
1025.0
1025.0
1030.0
1036.0
1043.0
1050.0
1051.0
1055.0
1058.0
1058.0
1059.0
1063.0
1063.0
1063.0
1066.0
1071.0
1071.0
1062.0
1046.0
1038.0
1042.0
1052.0
1056.0
1056.0
1053.0
1051.0
1048.0
1051.0
1048.0
1047.0
1043.0
1042.0
1044.0
1049.0
1049.0
1044.0
1040.0
1044.0
1050.0
1053.0
1052.0
1046.0
1045.0
1042.0
1038.0
1034.0
1037.0
1042.0
1042.0
1037.0
1039.0
1044.0
1047.0
1042.0
1039.0
1040.0
1041.0
1043.0
1039.0
1034.0
1034.0
1036.0
1035.0
1034.0
1032.0
1030.0
1034.0
1039.0
1039.0
1037.0
1038.0
1032.0
1028.0
1028.0
1031.0
1039.0
1040.0
1041.0
1038.0
1033.0
1030.0
1034.0
1040.0
1041.0
1035.0
1033.0
1031.0
1036.0
1037.0
1032.0
1032.0
1032.0
1040.0
1044.0
1046.0
1043.0
1037.0
1037.0
1037.0
1044.0
1041.0
1040.0
1039.0
1040.0
1044.0
1048.0
1046.0
1040.0
1033.0
1026.0
1032.0
1040.0
1041.0
1040.0
1034.0
1035.0
1038.0
1042.0
1044.0
1039.0
1040.0
1039.0
1041.0
1041.0
1040.0
1039.0
1034.0
1036.0
1037.0
1039.0
1040.0
1042.0
1045.0
1045.0
1046.0
1047.0
1049.0
1045.0
1036.0
1024.0
1027.0
1038.0
1044.0
1044.0
1041.0
1038.0
1042.0
1041.0
1038.0
1036.0
1037.0
1042.0
1040.0
1039.0
1042.0
1046.0
1048.0
1040.0
1040.0
1040.0
1040.0
1042.0
1036.0
1037.0
1039.0
1043.0
1042.0
1042.0
1037.0
1035.0
1040.0
1044.0
1043.0
1043.0
1041.0
1039.0
1041.0
1045.0
1047.0
1044.0
1045.0
1048.0
1051.0
1050.0
1048.0
1046.0
1045.0
1046.0
1052.0
1054.0
1058.0
1058.0
1059.0
1054.0
1048.0
1044.0
1043.0
1047.0
1050.0
1050.0
1052.0
1056.0
1058.0
1056.0
1049.0
1050.0
1053.0
1053.0
1047.0
1045.0
1046.0
1045.0
1045.0
1045.0
1046.0
1043.0
1043.0
1046.0
1046.0
1046.0
1046.0
1048.0
1045.0
1039.0
1037.0
1045.0
1047.0
1041.0
1035.0
1037.0
1037.0
1041.0
1044.0
1044.0
1040.0
1040.0
1041.0
1042.0
1045.0
1049.0
1048.0
1054.0
1064.0
1079.0
1093.0
1102.0
1115.0
1132.0
1165.0
1205.0
1250.0
1295.0
1337.0
1378.0
1415.0
1454.0
1490.0
1525.0
1547.0
1544.0
1519.0
1456.0
1369.0
1274.0
1191.0
1137.0
1104.0
1090.0
1076.0
1062.0
1047.0
1040.0
1039.0
1037.0
1035.0
1031.0
1027.0
1023.0
1019.0
1016.0
1013.0
1014.0
1009.0
1005.0
1004.0
1005.0
1009.0
1008.0
1005.0
1000.0
1001.0
1005.0
1002.0
1003.0
996.0
994.0
993.0
998.0
996.0
993.0
989.0
991.0
999.0
1006.0
1005.0
997.0
985.0
979.0
984.0
991.0
994.0
992.0
984.0
981.0
982.0
989.0
990.0
987.0
986.0
987.0
988.0
988.0
986.0
985.0
985.0
985.0
979.0
980.0
983.0
986.0
984.0
982.0
982.0
984.0
983.0
978.0
973.0
974.0
977.0
985.0
990.0
990.0
987.0
986.0
989.0
994.0
991.0
985.0
984.0
988.0
996.0
1003.0
1005.0
1011.0
1014.0
1017.0
1022.0
1028.0
1033.0
1031.0
1033.0
1038.0
1047.0
1055.0
1056.0
1056.0
1053.0
1057.0
1063.0
1068.0
1068.0
1066.0
1063.0
1058.0
1058.0
1056.0
1057.0
1055.0
1051.0
1051.0
1054.0
1053.0
1055.0
1048.0
1039.0
1034.0
1039.0
1042.0
1044.0
1043.0
1042.0
1042.0
1042.0
1040.0
1040.0
1042.0
1043.0
1045.0
1042.0
1042.0
1038.0
1031.0
1036.0
1040.0
1045.0
1045.0
1043.0
1033.0
1027.0
1031.0
1040.0
1043.0
1045.0
1039.0
1030.0
1025.0
1031.0
1035.0
1035.0
1033.0
1029.0
1028.0
1033.0
1038.0
1034.0
1026.0
1020.0
1025.0
1035.0
1044.0
1042.0
1031.0
1023.0
1020.0
1031.0
1038.0
1037.0
1035.0
1035.0
1035.0
1033.0
1032.0
1029.0
1031.0
1031.0
1031.0
1032.0
1038.0
1039.0
1034.0
1024.0
1023.0
1029.0
1035.0
1037.0
1036.0
1033.0
1034.0
1032.0
1030.0
1030.0
1033.0
1033.0
1033.0
1031.0
1029.0
1031.0
1031.0
1033.0
1030.0
1028.0
1032.0
1036.0
1033.0
1028.0
1028.0
1027.0
1030.0
1034.0
1032.0
1030.0
1032.0
1034.0
1030.0
1024.0
1027.0
1032.0
1036.0
1039.0
1037.0
1027.0
1021.0
1020.0
1026.0
1031.0
1033.0
1031.0
1025.0
1027.0
1026.0
1025.0
1030.0
1036.0
1035.0
1033.0
1033.0
1031.0
1025.0
1025.0
1027.0
1031.0
1031.0
1028.0
1031.0
1030.0
1033.0
1030.0
1037.0
1039.0
1035.0
1031.0
1029.0
1033.0
1038.0
1041.0
1042.0
1040.0
1035.0
1034.0
1036.0
1042.0
1046.0
1050.0
1049.0
1044.0
1040.0
1041.0
1044.0
1044.0
1043.0
1036.0
1034.0
1038.0
1042.0
1044.0
1045.0
1044.0
1045.0
1043.0
1039.0
1040.0
1039.0
1034.0
1031.0
1034.0
1031.0
1031.0
1033.0
1029.0
1032.0
1037.0
1040.0
1037.0
1030.0
1025.0
1028.0
1033.0
1033.0
1031.0
1031.0
1030.0
1037.0
1040.0
1039.0
1035.0
1026.0
1024.0
1025.0
1031.0
1039.0
1038.0
1032.0
1029.0
1029.0
1032.0
1037.0
1037.0
1040.0
1045.0
1055.0
1062.0
1072.0
1086.0
1102.0
1121.0
1147.0
1178.0
1215.0
1256.0
1298.0
1334.0
1368.0
1398.0
1430.0
1469.0
1499.0
1511.0
1494.0
1451.0
1380.0
1293.0
1210.0
1148.0
1106.0
1081.0
1067.0
1055.0
1052.0
1048.0
1048.0
1045.0
1037.0
1024.0
1018.0
1015.0
1016.0
1017.0
1020.0
1016.0
1009.0
1003.0
1005.0
1007.0
1014.0
1013.0
1005.0
1002.0
1005.0
1009.0
1007.0
1004.0
1001.0
1003.0
1005.0
1002.0
1002.0
1001.0
1001.0
998.0
999.0
992.0
994.0
994.0
995.0
994.0
994.0
997.0
997.0
997.0
996.0
994.0
992.0
989.0
993.0
994.0
993.0
989.0
987.0
995.0
999.0
997.0
989.0
984.0
991.0
994.0
992.0
986.0
982.0
982.0
987.0
989.0
990.0
988.0
987.0
989.0
987.0
984.0
983.0
990.0
992.0
988.0
986.0
984.0
989.0
992.0
994.0
996.0
998.0
1006.0
1011.0
1012.0
1011.0
1011.0
1012.0
1015.0
1021.0
1031.0
1040.0
1044.0
1045.0
1042.0
1043.0
1048.0
1053.0
1051.0
1051.0
1059.0
1064.0
1067.0
1063.0
1055.0
1055.0
1058.0
1062.0
1066.0
1062.0
1056.0
1049.0
1050.0
1053.0
1055.0
1051.0
1048.0
1042.0
1040.0
1047.0
1052.0
1051.0
1045.0
1039.0
1043.0
1047.0
1045.0
1041.0
1036.0
1034.0
1037.0
1042.0
1045.0
1048.0
1041.0
1036.0
1036.0
1040.0
1042.0
1040.0
1035.0
1038.0
1043.0
1043.0
1035.0
1029.0
1031.0
1033.0
1035.0
1034.0
1036.0
1036.0
1036.0
1041.0
1044.0
1044.0
1037.0
1033.0
1031.0
1036.0
1039.0
1039.0
1037.0
1032.0
1029.0
1034.0
1040.0
1041.0
1036.0
1036.0
1034.0
1037.0
1037.0
1038.0
1039.0
1039.0
1040.0
1039.0
1044.0
1045.0
1043.0
1041.0
1036.0
1036.0
1036.0
1043.0
1045.0
1044.0
1042.0
1040.0
1037.0
1037.0
1038.0
1035.0
1036.0
1037.0
1042.0
1042.0
1042.0
1037.0
1037.0
1044.0
1051.0
1052.0
1049.0
1048.0
1048.0
1059.0
1073.0
1088.0
1103.0
1122.0
1133.0
1133.0
1119.0
1103.0
1082.0
1048.0
997.0
938.0
876.0
807.0
740.0
691.0
671.0
658.0
654.0
662.0
671.0
687.0
700.0
718.0
736.0
758.0
789.0
817.0
840.0
861.0
876.0
891.0
898.0
911.0
920.0
931.0
937.0
941.0
946.0
954.0
960.0
969.0
978.0
993.0
1004.0
1020.0
1028.0
1039.0
1048.0
1057.0
1066.0
1067.0
1070.0
1071.0
1074.0
1075.0
1077.0
1082.0
1086.0
1087.0
1091.0
1097.0
1096.0
1094.0
1092.0
1097.0
1103.0
1105.0
1103.0
1103.0
1103.0
1110.0
1120.0
1119.0
1114.0
1107.0
1112.0
1121.0
1127.0
1127.0
1127.0
1129.0
1126.0
1133.0
1139.0
1145.0
1145.0
1143.0
1146.0
1153.0
1159.0
1165.0
1169.0
1175.0
1174.0
1182.0
1187.0
1192.0
1194.0
1199.0
1206.0
1213.0
1225.0
1241.0
1248.0
1248.0
1244.0
1247.0
1259.0
1273.0
1281.0
1281.0
1284.0
1289.0
1299.0
1306.0
1308.0
1305.0
1300.0
1299.0
1301.0
1298.0
1296.0
1297.0
1292.0
1292.0
1288.0
1278.0
1273.0
1268.0
1265.0
1254.0
1235.0
1221.0
1212.0
1202.0
1191.0
1187.0
1187.0
1176.0
1155.0
1145.0
1140.0
1140.0
1136.0
1131.0
1122.0
1115.0
1107.0
1104.0
1101.0
1093.0
1082.0
1073.0
1066.0
1066.0
1069.0
1068.0
1066.0
1059.0
1050.0
1054.0
1057.0
1059.0
1058.0
1055.0
1051.0
1051.0
1050.0
1052.0
1053.0
1050.0
1048.0
1044.0
1045.0
1049.0
1043.0
1034.0
1036.0
1044.0
1051.0
1053.0
1044.0
1036.0
1037.0
1039.0
1043.0
1043.0
1039.0
1034.0
1030.0
1035.0
1041.0
1049.0
1046.0
1034.0
1025.0
1027.0
1034.0
1039.0
1036.0
1029.0
1024.0
1026.0
1031.0
1031.0
1029.0
1029.0
1032.0
1035.0
1037.0
1035.0
1026.0
1026.0
1024.0
1022.0
1024.0
1026.0
1026.0
1028.0
1025.0
1020.0
1013.0
1014.0
1018.0
1020.0
1019.0
1026.0
1030.0
1029.0
1027.0
1028.0
1030.0
1026.0
1022.0
1022.0
1018.0
1015.0
1011.0
1012.0
1014.0
1017.0
1021.0
1021.0
1019.0
1019.0
1020.0
1019.0
1017.0
1011.0
1008.0
1009.0
1016.0
1018.0
1018.0
1012.0
1006.0
1006.0
1009.0
1018.0
1018.0
1015.0
1012.0
1009.0
1011.0
1015.0
1021.0
1020.0
1014.0
1011.0
1011.0
1014.0
1017.0
1013.0
1007.0
1005.0
1009.0
1017.0
1021.0
1018.0
1011.0
1007.0
1007.0
1013.0
1014.0
1013.0
1008.0
1004.0
1010.0
1014.0
1014.0
1008.0
1010.0
1015.0
1017.0
1011.0
1009.0
1009.0
1009.0
1011.0
1016.0
1013.0
1011.0
1009.0
1005.0
1013.0
1018.0
1015.0
1009.0
1006.0
1009.0
1019.0
1024.0
1020.0
1015.0
1013.0
1014.0
1019.0
1027.0
1030.0
1023.0
1016.0
1011.0
1010.0
1007.0
1007.0
1005.0
1009.0
1014.0
1017.0
1019.0
1022.0
1018.0
1017.0
1013.0
1014.0
1019.0
1023.0
1023.0
1021.0
1018.0
1018.0
1021.0
1023.0
1021.0
1017.0
1017.0
1019.0
1029.0
1030.0
1025.0
1014.0
1011.0
1018.0
1025.0
1028.0
1021.0
1013.0
1013.0
1016.0
1020.0
1023.0
1023.0
1020.0
1019.0
1023.0
1022.0
1028.0
1028.0
1024.0
1020.0
1017.0
1017.0
1025.0
1022.0
1022.0
1016.0
1017.0
1019.0
1024.0
1025.0
1029.0
1027.0
1028.0
1032.0
1029.0
1024.0
1019.0
1017.0
1020.0
1019.0
1021.0
1020.0
1022.0
1020.0
1024.0
1025.0
1028.0
1024.0
1022.0
1020.0
1023.0
1026.0
1029.0
1027.0
1025.0
1024.0
1026.0
1025.0
1030.0
1031.0
1027.0
1016.0
1009.0
1018.0
1030.0
1031.0
1025.0
1018.0
1020.0
1022.0
1026.0
1024.0
1025.0
1026.0
1025.0
1026.0
1030.0
1031.0
1031.0
1027.0
1029.0
1029.0
1031.0
1028.0
1026.0
1026.0
1024.0
1020.0
1015.0
1014.0
1021.0
1026.0
1033.0
1033.0
1036.0
1035.0
1029.0
1031.0
1029.0
1027.0
1026.0
1021.0
1015.0
1013.0
1018.0
1025.0
1029.0
1024.0
1024.0
1022.0
1027.0
1028.0
1030.0
1034.0
1030.0
1032.0
1039.0
1041.0
1038.0
1040.0
1041.0
1040.0
1041.0
1040.0
1043.0
1039.0
1037.0
1035.0
1033.0
1038.0
1039.0
1035.0
1036.0
1038.0
1035.0
1040.0
1047.0
1045.0
1048.0
1042.0
1036.0
1036.0
1037.0
1040.0
1037.0
1038.0
1035.0
1035.0
1034.0
1033.0
1030.0
1030.0
1030.0
1033.0
1037.0
1033.0
1031.0
1028.0
1033.0
1036.0
1036.0
1033.0
1028.0
1022.0
1027.0
1036.0
1040.0
1040.0
1037.0
1034.0
1035.0
1038.0
1038.0
1034.0
1037.0
1040.0
1048.0
1058.0
1072.0
1087.0
1100.0
1111.0
1136.0
1170.0
1210.0
1249.0
1288.0
1327.0
1363.0
1401.0
1440.0
1472.0
1490.0
1486.0
1457.0
1395.0
1313.0
1225.0
1160.0
1115.0
1090.0
1076.0
1069.0
1061.0
1047.0
1040.0
1033.0
1037.0
1034.0
1027.0
1023.0
1021.0
1016.0
1010.0
1007.0
1003.0
1001.0
998.0
996.0
996.0
1000.0
1001.0
998.0
1002.0
999.0
999.0
996.0
998.0
996.0
996.0
994.0
995.0
993.0
992.0
990.0
989.0
987.0
987.0
986.0
986.0
987.0
986.0
988.0
989.0
989.0
988.0
986.0
985.0
986.0
986.0
989.0
983.0
984.0
980.0
986.0
987.0
985.0
978.0
977.0
979.0
980.0
981.0
986.0
985.0
983.0
978.0
981.0
981.0
981.0
982.0
979.0
974.0
976.0
977.0
985.0
979.0
977.0
976.0
976.0
981.0
984.0
981.0
984.0
984.0
985.0
981.0
979.0
976.0
976.0
978.0
984.0
989.0
996.0
994.0
992.0
992.0
996.0
1002.0
1006.0
1006.0
1007.0
1011.0
1021.0
1033.0
1038.0
1037.0
1037.0
1040.0
1047.0
1057.0
1064.0
1064.0
1064.0
1064.0
1065.0
1071.0
1077.0
1079.0
1078.0
1074.0
1071.0
1072.0
1076.0
1067.0
1065.0
1059.0
1058.0
1062.0
1063.0
1060.0
1059.0
1055.0
1052.0
1052.0
1053.0
1052.0
1052.0
1048.0
1050.0
1051.0
1054.0
1053.0
1047.0
1045.0
1049.0
1050.0
1052.0
1053.0
1050.0
1048.0
1046.0
1045.0
1044.0
1045.0
1045.0
1043.0
1039.0
1038.0
1043.0
1044.0
1044.0
1041.0
1042.0
1041.0
1043.0
1039.0
1036.0
1039.0
1040.0
1042.0
1046.0
1045.0
1044.0
1039.0
1041.0
1040.0
1040.0
1037.0
1037.0
1042.0
1047.0
1046.0
1043.0
1038.0
1035.0
1033.0
1032.0
1034.0
1036.0
1035.0
1038.0
1036.0
1036.0
1036.0
1036.0
1036.0
1031.0
1033.0
1034.0
1040.0
1040.0
1032.0
1027.0
1025.0
1030.0
1037.0
1042.0
1036.0
1030.0
1028.0
1032.0
1035.0
1034.0
1027.0
1026.0
1027.0
1029.0
1033.0
1032.0
1031.0
1028.0
1026.0
1029.0
1027.0
1030.0
1031.0
1032.0
1028.0
1031.0
1031.0
1030.0
1025.0
1023.0
1022.0
1025.0
1026.0
1030.0
1029.0
1028.0
1025.0
1025.0
1023.0
1023.0
1024.0
1021.0
1020.0
1024.0
1026.0
1029.0
1032.0
1036.0
1032.0
1028.0
1019.0
1023.0
1026.0
1026.0
1025.0
1025.0
1027.0
1030.0
1027.0
1024.0
1028.0
1029.0
1028.0
1027.0
1022.0
1020.0
1022.0
1023.0
1028.0
1033.0
1029.0
1028.0
1027.0
1027.0
1034.0
1035.0
1038.0
1037.0
1035.0
1031.0
1035.0
1041.0
1036.0
1033.0
1028.0
1032.0
1036.0
1040.0
1037.0
1035.0
1035.0
1032.0
1034.0
1039.0
1040.0
1034.0
1029.0
1026.0
1027.0
1025.0
1023.0
1020.0
1020.0
1019.0
1023.0
1026.0
1024.0
1024.0
1022.0
1025.0
1029.0
1033.0
1029.0
1022.0
1018.0
1018.0
1016.0
1024.0
1026.0
